File: sample_data/data/Spectrum value from standard/Nist2587/Spectrum 32.txt
#FORMAT      : EMSA/MAS Spectral Data File
#VERSION     : 1.0
#TITLE       : Spectrum 32
#DATE        : 21-AUG-2025
#TIME        : 15:36
#OWNER       : XGT7200
#NPOINTS     : 4096.
#NCOLUMNS    : 1.
#XUNITS      : keV
#YUNITS      : counts
#DATATYPE    : XY
#XPERCHAN    : 0.0100000
#OFFSET      : -0.400000
#SIGNALTYPE  : EDS
#CHOFFSET    : 40.0000
#LIVETIME    : 30
#REALTIME    : 39.9673
#BEAMKV      : 50.0000
#PROBECUR    : 725000.
#MAGCAM      : 100.000
#XTILTSTGE   : 0.0
#AZIMANGLE   : 0.0
#ELEVANGLE   : 45.0
#XPOSITION mm: 0.0000
#YPOSITION mm: 0.0000
#ZPOSITION mm: 0.0000
##OXINSTPT   : 4
##OXINSTSTROB: 72.14
#SPECTRUM    : Spectral Data Starts Here
-0.40000, 0.
-0.26000, 0.
-0.12000, 0.
0.02000, 0.
0.16000, 0.
0.30000, 0.
0.44000, 43.
0.58000, 49.
0.72000, 46.
0.86000, 54.
1.00000, 35.
1.14000, 31.
1.28000, 62.
1.42000, 183.
1.56000, 276.
1.70000, 4404.
1.84000, 1046.
1.98000, 83.
2.12000, 39.
2.26000, 59.
2.40000, 101.
2.54000, 51.
2.68000, 381.
2.82000, 230.
2.96000, 95.
3.10000, 26.
3.24000, 217.
3.38000, 357.
3.52000, 72.
3.66000, 628.
3.80000, 120.
3.94000, 65.
4.08000, 69.
4.22000, 36.
4.36000, 55.
4.50000, 661.
4.64000, 125.
4.78000, 63.
4.92000, 150.
5.06000, 58.
5.20000, 71.
5.34000, 75.
5.48000, 81.
5.62000, 54.
5.76000, 71.
5.90000, 253.
6.04000, 87.
6.18000, 117.
6.32000, 4486.
6.46000, 6388.
6.60000, 179.
6.74000, 77.
6.88000, 173.
7.02000, 1496.
7.16000, 507.
7.30000, 80.
7.44000, 104.
7.58000, 91.
7.72000, 85.
7.86000, 102.
8.00000, 208.
8.14000, 182.
8.28000, 142.
8.42000, 124.
8.56000, 276.
8.70000, 260.
8.84000, 135.
8.98000, 146.
9.12000, 160.
9.26000, 198.
9.40000, 142.
9.54000, 198.
9.68000, 151.
9.82000, 140.
9.96000, 150.
10.10000, 140.
10.24000, 158.
10.38000, 349.
10.52000, 1305.
10.66000, 531.
10.80000, 170.
10.94000, 155.
11.08000, 169.
11.22000, 177.
11.36000, 199.
11.50000, 179.
11.64000, 147.
11.78000, 176.
11.92000, 176.
12.06000, 217.
12.20000, 249.
12.34000, 260.
12.48000, 539.
12.62000, 1225.
12.76000, 421.
12.90000, 233.
13.04000, 228.
13.18000, 194.
13.32000, 255.
13.46000, 252.
13.60000, 173.
13.74000, 167.
13.88000, 189.
14.02000, 291.
14.16000, 306.
14.30000, 191.
14.44000, 170.
14.58000, 194.
14.72000, 317.
14.86000, 292.
15.00000, 200.
15.14000, 214.
15.28000, 195.
15.42000, 169.
15.56000, 216.
15.70000, 358.
15.84000, 298.
15.98000, 177.
16.12000, 166.
16.26000, 185.
16.40000, 163.
16.54000, 193.
16.68000, 164.
16.82000, 156.
16.96000, 178.
17.10000, 160.
17.24000, 183.
17.38000, 198.
17.52000, 213.
17.66000, 252.
17.80000, 212.
17.94000, 260.
18.08000, 252.
18.22000, 337.
18.36000, 444.
18.50000, 653.
18.64000, 892.
18.78000, 992.
18.92000, 973.
19.06000, 689.
19.20000, 453.
19.34000, 337.
19.48000, 275.
19.62000, 236.
19.76000, 196.
19.90000, 222.
20.04000, 527.
20.18000, 583.
20.32000, 322.
20.46000, 183.
20.60000, 191.
20.74000, 216.
20.88000, 253.
21.02000, 300.
21.16000, 248.
21.30000, 223.
21.44000, 189.
21.58000, 155.
21.72000, 116.
21.86000, 131.
22.00000, 109.
22.14000, 104.
22.28000, 95.
22.42000, 91.
22.56000, 115.
22.70000, 150.
22.84000, 106.
22.98000, 78.
23.12000, 110.
23.26000, 76.
23.40000, 72.
23.54000, 77.
23.68000, 71.
23.82000, 70.
23.96000, 65.
24.10000, 74.
24.24000, 65.
24.38000, 65.
24.52000, 65.
24.66000, 59.
24.80000, 79.
24.94000, 86.
25.08000, 64.
25.22000, 86.
25.36000, 65.
25.50000, 75.
25.64000, 63.
25.78000, 65.
25.92000, 54.
26.06000, 57.
26.20000, 48.
26.34000, 82.
26.48000, 50.
26.62000, 65.
26.76000, 52.
26.90000, 44.
27.04000, 62.
27.18000, 41.
27.32000, 64.
27.46000, 57.
27.60000, 46.
27.74000, 50.
27.88000, 60.
28.02000, 54.
28.16000, 43.
28.30000, 56.
28.44000, 40.
28.58000, 54.
28.72000, 47.
28.86000, 44.
29.00000, 37.
29.14000, 34.
29.28000, 40.
29.42000, 39.
29.56000, 41.
29.70000, 41.
29.84000, 44.
29.98000, 51.
30.12000, 25.
30.26000, 40.
30.40000, 36.
30.54000, 39.
30.68000, 33.
30.82000, 33.
30.96000, 39.
31.10000, 31.
31.24000, 37.
31.38000, 36.
31.52000, 36.
31.66000, 33.
31.80000, 28.
31.94000, 27.
32.08000, 38.
32.22000, 31.
32.36000, 38.
32.50000, 27.
32.64000, 23.
32.78000, 38.
32.92000, 29.
33.06000, 33.
33.20000, 21.
33.34000, 22.
33.48000, 28.
33.62000, 23.
33.76000, 17.
33.90000, 16.
34.04000, 23.
34.18000, 23.
34.32000, 13.
34.46000, 26.
34.60000, 25.
34.74000, 20.
34.88000, 20.
35.02000, 21.
35.16000, 19.
35.30000, 22.
35.44000, 17.
35.58000, 19.
35.72000, 10.
35.86000, 10.
36.00000, 18.
36.14000, 20.
36.28000, 18.
36.42000, 12.
36.56000, 16.
36.70000, 18.
36.84000, 17.
36.98000, 16.
37.12000, 12.
37.26000, 12.
37.40000, 15.
37.54000, 13.
37.68000, 11.
37.82000, 10.
37.96000, 14.
38.10000, 2.
38.24000, 5.
38.38000, 11.
38.52000, 6.
38.66000, 12.
38.80000, 9.
38.94000, 3.
39.08000, 8.
39.22000, 10.
39.36000, 10.
39.50000, 3.
39.64000, 8.
39.78000, 3.
39.92000, 2.
40.06000, 6.
40.20000, 2.
40.34000, 4.
40.48000, 5.
40.55000, 0.
#ENDOFDATA   :