File: sample_data/data/Spectrum value from standard/Nist2587/Spectrum 35.txt
#FORMAT      : EMSA/MAS Spectral Data File
#VERSION     : 1.0
#TITLE       : Spectrum 35
#DATE        : 21-AUG-2025
#TIME        : 15:39
#OWNER       : XGT7200
#NPOINTS     : 4096.
#NCOLUMNS    : 1.
#XUNITS      : keV
#YUNITS      : counts
#DATATYPE    : XY
#XPERCHAN    : 0.0100000
#OFFSET      : -0.400000
#SIGNALTYPE  : EDS
#CHOFFSET    : 40.0000
#LIVETIME    : 30
#REALTIME    : 39.7465
#BEAMKV      : 50.0000
#PROBECUR    : 690000.
#MAGCAM      : 100.000
#XTILTSTGE   : 0.0
#AZIMANGLE   : 0.0
#ELEVANGLE   : 45.0
#XPOSITION mm: 0.0000
#YPOSITION mm: 0.0000
#ZPOSITION mm: 0.0000
##OXINSTPT   : 4
##OXINSTSTROB: 72.07
#SPECTRUM    : Spectral Data Starts Here
-0.40000, 0.
-0.26000, 0.
-0.12000, 0.
0.02000, 0.
0.16000, 0.
0.30000, 0.
0.44000, 38.
0.58000, 52.
0.72000, 43.
0.86000, 42.
1.00000, 34.
1.14000, 32.
1.28000, 61.
1.42000, 180.
1.56000, 248.
1.70000, 4519.
1.84000, 1065.
1.98000, 77.
2.12000, 34.
2.26000, 78.
2.40000, 108.
2.54000, 44.
2.68000, 377.
2.82000, 238.
2.96000, 81.
3.10000, 44.
3.24000, 217.
3.38000, 331.
3.52000, 94.
3.66000, 472.
3.80000, 94.
3.94000, 56.
4.08000, 60.
4.22000, 28.
4.36000, 38.
4.50000, 477.
4.64000, 116.
4.78000, 80.
4.92000, 131.
5.06000, 58.
5.20000, 71.
5.34000, 53.
5.48000, 65.
5.62000, 68.
5.76000, 80.
5.90000, 233.
6.04000, 92.
6.18000, 111.
6.32000, 4430.
6.46000, 6376.
6.60000, 153.
6.74000, 87.
6.88000, 155.
7.02000, 1491.
7.16000, 488.
7.30000, 82.
7.44000, 82.
7.58000, 82.
7.72000, 59.
7.86000, 112.
8.00000, 173.
8.14000, 182.
8.28000, 131.
8.42000, 125.
8.56000, 241.
8.70000, 235.
8.84000, 158.
8.98000, 143.
9.12000, 171.
9.26000, 173.
9.40000, 124.
9.54000, 168.
9.68000, 132.
9.82000, 138.
9.96000, 156.
10.10000, 155.
10.24000, 139.
10.38000, 344.
10.52000, 1364.
10.66000, 589.
10.80000, 148.
10.94000, 169.
11.08000, 162.
11.22000, 181.
11.36000, 150.
11.50000, 163.
11.64000, 158.
11.78000, 146.
11.92000, 195.
12.06000, 183.
12.20000, 222.
12.34000, 244.
12.48000, 565.
12.62000, 1407.
12.76000, 453.
12.90000, 250.
13.04000, 221.
13.18000, 188.
13.32000, 243.
13.46000, 231.
13.60000, 187.
13.74000, 152.
13.88000, 163.
14.02000, 230.
14.16000, 293.
14.30000, 195.
14.44000, 163.
14.58000, 203.
14.72000, 357.
14.86000, 268.
15.00000, 220.
15.14000, 223.
15.28000, 174.
15.42000, 162.
15.56000, 241.
15.70000, 426.
15.84000, 362.
15.98000, 166.
16.12000, 165.
16.26000, 172.
16.40000, 182.
16.54000, 193.
16.68000, 179.
16.82000, 158.
16.96000, 179.
17.10000, 157.
17.24000, 181.
17.38000, 177.
17.52000, 197.
17.66000, 252.
17.80000, 222.
17.94000, 235.
18.08000, 270.
18.22000, 319.
18.36000, 407.
18.50000, 592.
18.64000, 905.
18.78000, 1022.
18.92000, 860.
19.06000, 664.
19.20000, 474.
19.34000, 311.
19.48000, 242.
19.62000, 199.
19.76000, 191.
19.90000, 236.
20.04000, 426.
20.18000, 592.
20.32000, 329.
20.46000, 162.
20.60000, 179.
20.74000, 230.
20.88000, 247.
21.02000, 292.
21.16000, 273.
21.30000, 199.
21.44000, 191.
21.58000, 150.
21.72000, 124.
21.86000, 111.
22.00000, 97.
22.14000, 92.
22.28000, 85.
22.42000, 111.
22.56000, 111.
22.70000, 184.
22.84000, 95.
22.98000, 82.
23.12000, 86.
23.26000, 93.
23.40000, 56.
23.54000, 72.
23.68000, 65.
23.82000, 70.
23.96000, 63.
24.10000, 70.
24.24000, 73.
24.38000, 73.
24.52000, 73.
24.66000, 66.
24.80000, 56.
24.94000, 66.
25.08000, 72.
25.22000, 85.
25.36000, 77.
25.50000, 45.
25.64000, 63.
25.78000, 51.
25.92000, 70.
26.06000, 66.
26.20000, 63.
26.34000, 37.
26.48000, 57.
26.62000, 45.
26.76000, 49.
26.90000, 49.
27.04000, 53.
27.18000, 59.
27.32000, 49.
27.46000, 58.
27.60000, 44.
27.74000, 44.
27.88000, 51.
28.02000, 38.
28.16000, 40.
28.30000, 53.
28.44000, 51.
28.58000, 53.
28.72000, 47.
28.86000, 53.
29.00000, 36.
29.14000, 44.
29.28000, 39.
29.42000, 36.
29.56000, 36.
29.70000, 42.
29.84000, 41.
29.98000, 35.
30.12000, 45.
30.26000, 35.
30.40000, 36.
30.54000, 43.
30.68000, 30.
30.82000, 35.
30.96000, 28.
31.10000, 32.
31.24000, 28.
31.38000, 32.
31.52000, 38.
31.66000, 37.
31.80000, 31.
31.94000, 36.
32.08000, 38.
32.22000, 49.
32.36000, 32.
32.50000, 30.
32.64000, 25.
32.78000, 27.
32.92000, 21.
33.06000, 29.
33.20000, 31.
33.34000, 16.
33.48000, 31.
33.62000, 17.
33.76000, 29.
33.90000, 22.
34.04000, 19.
34.18000, 21.
34.32000, 21.
34.46000, 21.
34.60000, 17.
34.74000, 18.
34.88000, 18.
35.02000, 15.
35.16000, 7.
35.30000, 7.
35.44000, 18.
35.58000, 20.
35.72000, 15.
35.86000, 20.
36.00000, 17.
36.14000, 12.
36.28000, 13.
36.42000, 14.
36.56000, 11.
36.70000, 9.
36.84000, 14.
36.98000, 9.
37.12000, 12.
37.26000, 13.
37.40000, 7.
37.54000, 4.
37.68000, 13.
37.82000, 10.
37.96000, 12.
38.10000, 11.
38.24000, 13.
38.38000, 11.
38.52000, 9.
38.66000, 6.
38.80000, 9.
38.94000, 9.
39.08000, 7.
39.22000, 10.
39.36000, 7.
39.50000, 7.
39.64000, 16.
39.78000, 8.
39.92000, 5.
40.06000, 3.
40.20000, 3.
40.34000, 8.
40.48000, 4.
40.55000, 0.
#ENDOFDATA   :