File: sample_data/data/Spectrum value from standard/Nist2587/Spectrum 33, NIST 2587.txt
#FORMAT      : EMSA/MAS Spectral Data File
#VERSION     : 1.0
#TITLE       : Spectrum 33
#DATE        : 21-AUG-2025
#TIME        : 15:37
#OWNER       : XGT7200
#NPOINTS     : 4096.
#NCOLUMNS    : 1.
#XUNITS      : keV
#YUNITS      : counts
#DATATYPE    : XY
#XPERCHAN    : 0.0100000
#OFFSET      : -0.400000
#SIGNALTYPE  : EDS
#CHOFFSET    : 40.0000
#LIVETIME    : 30
#REALTIME    : 39.4766
#BEAMKV      : 50.0000
#PROBECUR    : 683000.
#MAGCAM      : 100.000
#XTILTSTGE   : 0.0
#AZIMANGLE   : 0.0
#ELEVANGLE   : 45.0
#XPOSITION mm: 0.0000
#YPOSITION mm: 0.0000
#ZPOSITION mm: 0.0000
##OXINSTPT   : 4
##OXINSTSTROB: 71.83
#SPECTRUM    : Spectral Data Starts Here
-0.40000, 0.
-0.26000, 0.
-0.12000, 0.
0.02000, 0.
0.16000, 0.
0.30000, 0.
0.44000, 33.
0.58000, 44.
0.72000, 46.
0.86000, 41.
1.00000, 42.
1.14000, 33.
1.28000, 47.
1.42000, 167.
1.56000, 215.
1.70000, 4329.
1.84000, 1009.
1.98000, 69.
2.12000, 39.
2.26000, 63.
2.40000, 114.
2.54000, 46.
2.68000, 395.
2.82000, 197.
2.96000, 92.
3.10000, 30.
3.24000, 230.
3.38000, 300.
3.52000, 70.
3.66000, 514.
3.80000, 93.
3.94000, 47.
4.08000, 68.
4.22000, 26.
4.36000, 51.
4.50000, 557.
4.64000, 98.
4.78000, 92.
4.92000, 161.
5.06000, 46.
5.20000, 61.
5.34000, 66.
5.48000, 84.
5.62000, 43.
5.76000, 59.
5.90000, 235.
6.04000, 81.
6.18000, 106.
6.32000, 4235.
6.46000, 6054.
6.60000, 133.
6.74000, 95.
6.88000, 152.
7.02000, 1443.
7.16000, 492.
7.30000, 72.
7.44000, 85.
7.58000, 86.
7.72000, 100.
7.86000, 87.
8.00000, 181.
8.14000, 169.
8.28000, 130.
8.42000, 121.
8.56000, 269.
8.70000, 243.
8.84000, 152.
8.98000, 140.
9.12000, 182.
9.26000, 168.
9.40000, 148.
9.54000, 181.
9.68000, 159.
9.82000, 128.
9.96000, 148.
10.10000, 146.
10.24000, 170.
10.38000, 346.
10.52000, 1289.
10.66000, 509.
10.80000, 161.
10.94000, 167.
11.08000, 158.
11.22000, 182.
11.36000, 187.
11.50000, 159.
11.64000, 163.
11.78000, 156.
11.92000, 167.
12.06000, 223.
12.20000, 212.
12.34000, 246.
12.48000, 488.
12.62000, 1204.
12.76000, 448.
12.90000, 222.
13.04000, 215.
13.18000, 178.
13.32000, 230.
13.46000, 230.
13.60000, 168.
13.74000, 162.
13.88000, 177.
14.02000, 234.
14.16000, 315.
14.30000, 186.
14.44000, 168.
14.58000, 194.
14.72000, 330.
14.86000, 264.
15.00000, 213.
15.14000, 209.
15.28000, 179.
15.42000, 169.
15.56000, 234.
15.70000, 414.
15.84000, 308.
15.98000, 158.
16.12000, 172.
16.26000, 157.
16.40000, 154.
16.54000, 178.
16.68000, 157.
16.82000, 155.
16.96000, 166.
17.10000, 167.
17.24000, 157.
17.38000, 180.
17.52000, 205.
17.66000, 227.
17.80000, 228.
17.94000, 226.
18.08000, 275.
18.22000, 289.
18.36000, 429.
18.50000, 604.
18.64000, 867.
18.78000, 946.
18.92000, 918.
19.06000, 700.
19.20000, 438.
19.34000, 338.
19.48000, 232.
19.62000, 198.
19.76000, 199.
19.90000, 232.
20.04000, 456.
20.18000, 537.
20.32000, 296.
20.46000, 199.
20.60000, 188.
20.74000, 224.
20.88000, 238.
21.02000, 269.
21.16000, 218.
21.30000, 204.
21.44000, 190.
21.58000, 150.
21.72000, 114.
21.86000, 106.
22.00000, 93.
22.14000, 88.
22.28000, 102.
22.42000, 98.
22.56000, 121.
22.70000, 141.
22.84000, 93.
22.98000, 66.
23.12000, 83.
23.26000, 85.
23.40000, 73.
23.54000, 64.
23.68000, 79.
23.82000, 78.
23.96000, 76.
24.10000, 61.
24.24000, 75.
24.38000, 69.
24.52000, 72.
24.66000, 77.
24.80000, 76.
24.94000, 70.
25.08000, 69.
25.22000, 77.
25.36000, 71.
25.50000, 55.
25.64000, 62.
25.78000, 68.
25.92000, 51.
26.06000, 71.
26.20000, 61.
26.34000, 81.
26.48000, 49.
26.62000, 55.
26.76000, 57.
26.90000, 63.
27.04000, 47.
27.18000, 58.
27.32000, 53.
27.46000, 48.
27.60000, 50.
27.74000, 29.
27.88000, 46.
28.02000, 55.
28.16000, 54.
28.30000, 50.
28.44000, 50.
28.58000, 32.
28.72000, 43.
28.86000, 47.
29.00000, 57.
29.14000, 52.
29.28000, 42.
29.42000, 39.
29.56000, 42.
29.70000, 45.
29.84000, 32.
29.98000, 38.
30.12000, 31.
30.26000, 23.
30.40000, 33.
30.54000, 22.
30.68000, 36.
30.82000, 39.
30.96000, 44.
31.10000, 43.
31.24000, 32.
31.38000, 28.
31.52000, 29.
31.66000, 40.
31.80000, 33.
31.94000, 41.
32.08000, 36.
32.22000, 28.
32.36000, 25.
32.50000, 24.
32.64000, 25.
32.78000, 24.
32.92000, 36.
33.06000, 23.
33.20000, 28.
33.34000, 28.
33.48000, 17.
33.62000, 25.
33.76000, 21.
33.90000, 20.
34.04000, 18.
34.18000, 23.
34.32000, 28.
34.46000, 24.
34.60000, 13.
34.74000, 13.
34.88000, 18.
35.02000, 22.
35.16000, 6.
35.30000, 23.
35.44000, 17.
35.58000, 16.
35.72000, 10.
35.86000, 10.
36.00000, 19.
36.14000, 15.
36.28000, 19.
36.42000, 18.
36.56000, 13.
36.70000, 8.
36.84000, 16.
36.98000, 6.
37.12000, 13.
37.26000, 10.
37.40000, 8.
37.54000, 7.
37.68000, 12.
37.82000, 14.
37.96000, 7.
38.10000, 7.
38.24000, 9.
38.38000, 10.
38.52000, 7.
38.66000, 7.
38.80000, 8.
38.94000, 14.
39.08000, 14.
39.22000, 7.
39.36000, 3.
39.50000, 4.
39.64000, 4.
39.78000, 6.
39.92000, 8.
40.06000, 4.
40.20000, 4.
40.34000, 5.
40.48000, 3.
40.55000, 0.
#ENDOFDATA   :