File: sample_data/data/Spectrum value from standard/Nist2587/Spectrum 34.txt
#FORMAT      : EMSA/MAS Spectral Data File
#VERSION     : 1.0
#TITLE       : Spectrum 34
#DATE        : 21-AUG-2025
#TIME        : 15:38
#OWNER       : XGT7200
#NPOINTS     : 4096.
#NCOLUMNS    : 1.
#XUNITS      : keV
#YUNITS      : counts
#DATATYPE    : XY
#XPERCHAN    : 0.0100000
#OFFSET      : -0.400000
#SIGNALTYPE  : EDS
#CHOFFSET    : 40.0000
#LIVETIME    : 30
#REALTIME    : 39.7459
#BEAMKV      : 50.0000
#PROBECUR    : 688000.
#MAGCAM      : 100.000
#XTILTSTGE   : 0.0
#AZIMANGLE   : 0.0
#ELEVANGLE   : 45.0
#XPOSITION mm: 0.0000
#YPOSITION mm: 0.0000
#ZPOSITION mm: 0.0000
##OXINSTPT   : 4
##OXINSTSTROB: 72.11
#SPECTRUM    : Spectral Data Starts Here
-0.40000, 0.
-0.26000, 0.
-0.12000, 0.
0.02000, 0.
0.16000, 0.
0.30000, 0.
0.44000, 49.
0.58000, 58.
0.72000, 60.
0.86000, 41.
1.00000, 44.
1.14000, 46.
1.28000, 74.
1.42000, 193.
1.56000, 279.
1.70000, 4137.
1.84000, 964.
1.98000, 68.
2.12000, 30.
2.26000, 55.
2.40000, 128.
2.54000, 40.
2.68000, 428.
2.82000, 361.
2.96000, 106.
3.10000, 32.
3.24000, 247.
3.38000, 345.
3.52000, 79.
3.66000, 476.
3.80000, 72.
3.94000, 56.
4.08000, 61.
4.22000, 27.
4.36000, 47.
4.50000, 614.
4.64000, 100.
4.78000, 78.
4.92000, 151.
5.06000, 57.
5.20000, 74.
5.34000, 72.
5.48000, 95.
5.62000, 76.
5.76000, 64.
5.90000, 226.
6.04000, 61.
6.18000, 113.
6.32000, 4503.
6.46000, 6436.
6.60000, 155.
6.74000, 106.
6.88000, 177.
7.02000, 1469.
7.16000, 466.
7.30000, 78.
7.44000, 100.
7.58000, 83.
7.72000, 90.
7.86000, 104.
8.00000, 198.
8.14000, 164.
8.28000, 109.
8.42000, 129.
8.56000, 253.
8.70000, 259.
8.84000, 135.
8.98000, 131.
9.12000, 169.
9.26000, 180.
9.40000, 162.
9.54000, 180.
9.68000, 156.
9.82000, 155.
9.96000, 134.
10.10000, 147.
10.24000, 165.
10.38000, 382.
10.52000, 1294.
10.66000, 516.
10.80000, 155.
10.94000, 160.
11.08000, 193.
11.22000, 211.
11.36000, 175.
11.50000, 153.
11.64000, 166.
11.78000, 168.
11.92000, 157.
12.06000, 172.
12.20000, 210.
12.34000, 272.
12.48000, 543.
12.62000, 1278.
12.76000, 448.
12.90000, 260.
13.04000, 207.
13.18000, 198.
13.32000, 229.
13.46000, 220.
13.60000, 162.
13.74000, 182.
13.88000, 188.
14.02000, 235.
14.16000, 297.
14.30000, 207.
14.44000, 183.
14.58000, 173.
14.72000, 349.
14.86000, 268.
15.00000, 224.
15.14000, 211.
15.28000, 203.
15.42000, 163.
15.56000, 217.
15.70000, 380.
15.84000, 311.
15.98000, 155.
16.12000, 178.
16.26000, 152.
16.40000, 162.
16.54000, 171.
16.68000, 186.
16.82000, 158.
16.96000, 155.
17.10000, 169.
17.24000, 181.
17.38000, 174.
17.52000, 196.
17.66000, 207.
17.80000, 235.
17.94000, 270.
18.08000, 260.
18.22000, 327.
18.36000, 386.
18.50000, 596.
18.64000, 839.
18.78000, 979.
18.92000, 892.
19.06000, 703.
19.20000, 459.
19.34000, 344.
19.48000, 257.
19.62000, 202.
19.76000, 197.
19.90000, 247.
20.04000, 454.
20.18000, 558.
20.32000, 334.
20.46000, 188.
20.60000, 181.
20.74000, 220.
20.88000, 262.
21.02000, 278.
21.16000, 250.
21.30000, 237.
21.44000, 180.
21.58000, 144.
21.72000, 123.
21.86000, 119.
22.00000, 87.
22.14000, 79.
22.28000, 98.
22.42000, 90.
22.56000, 123.
22.70000, 140.
22.84000, 98.
22.98000, 79.
23.12000, 81.
23.26000, 89.
23.40000, 83.
23.54000, 79.
23.68000, 70.
23.82000, 84.
23.96000, 76.
24.10000, 82.
24.24000, 67.
24.38000, 64.
24.52000, 74.
24.66000, 60.
24.80000, 77.
24.94000, 73.
25.08000, 66.
25.22000, 89.
25.36000, 65.
25.50000, 58.
25.64000, 67.
25.78000, 61.
25.92000, 53.
26.06000, 58.
26.20000, 63.
26.34000, 61.
26.48000, 65.
26.62000, 59.
26.76000, 48.
26.90000, 46.
27.04000, 60.
27.18000, 70.
27.32000, 65.
27.46000, 47.
27.60000, 33.
27.74000, 46.
27.88000, 49.
28.02000, 39.
28.16000, 48.
28.30000, 49.
28.44000, 42.
28.58000, 39.
28.72000, 51.
28.86000, 53.
29.00000, 42.
29.14000, 37.
29.28000, 43.
29.42000, 46.
29.56000, 27.
29.70000, 28.
29.84000, 38.
29.98000, 40.
30.12000, 34.
30.26000, 33.
30.40000, 18.
30.54000, 41.
30.68000, 40.
30.82000, 26.
30.96000, 34.
31.10000, 42.
31.24000, 46.
31.38000, 31.
31.52000, 30.
31.66000, 30.
31.80000, 31.
31.94000, 43.
32.08000, 36.
32.22000, 37.
32.36000, 45.
32.50000, 29.
32.64000, 25.
32.78000, 26.
32.92000, 26.
33.06000, 28.
33.20000, 30.
33.34000, 25.
33.48000, 26.
33.62000, 18.
33.76000, 17.
33.90000, 21.
34.04000, 21.
34.18000, 27.
34.32000, 14.
34.46000, 13.
34.60000, 20.
34.74000, 19.
34.88000, 20.
35.02000, 18.
35.16000, 20.
35.30000, 17.
35.44000, 15.
35.58000, 16.
35.72000, 13.
35.86000, 11.
36.00000, 19.
36.14000, 11.
36.28000, 17.
36.42000, 20.
36.56000, 16.
36.70000, 7.
36.84000, 13.
36.98000, 16.
37.12000, 12.
37.26000, 12.
37.40000, 10.
37.54000, 16.
37.68000, 7.
37.82000, 8.
37.96000, 6.
38.10000, 9.
38.24000, 8.
38.38000, 11.
38.52000, 9.
38.66000, 5.
38.80000, 5.
38.94000, 16.
39.08000, 8.
39.22000, 10.
39.36000, 9.
39.50000, 8.
39.64000, 9.
39.78000, 6.
39.92000, 5.
40.06000, 4.
40.20000, 2.
40.34000, 2.
40.48000, 10.
40.55000, 0.
#ENDOFDATA   :