File: sample_data/data/Spectrum value from standard/Nist2587/Spectrum 31.txt
#FORMAT      : EMSA/MAS Spectral Data File
#VERSION     : 1.0
#TITLE       : Spectrum 31
#DATE        : 21-AUG-2025
#TIME        : 15:35
#OWNER       : XGT7200
#NPOINTS     : 4096.
#NCOLUMNS    : 1.
#XUNITS      : keV
#YUNITS      : counts
#DATATYPE    : XY
#XPERCHAN    : 0.0100000
#OFFSET      : -0.400000
#SIGNALTYPE  : EDS
#CHOFFSET    : 40.0000
#LIVETIME    : 30
#REALTIME    : 39.5875
#BEAMKV      : 50.0000
#PROBECUR    : 681000.
#MAGCAM      : 100.000
#XTILTSTGE   : 0.0
#AZIMANGLE   : 0.0
#ELEVANGLE   : 45.0
#XPOSITION mm: 0.0000
#YPOSITION mm: 0.0000
#ZPOSITION mm: 0.0000
##OXINSTPT   : 4
##OXINSTSTROB: 72.04
#SPECTRUM    : Spectral Data Starts Here
-0.40000, 0.
-0.26000, 0.
-0.12000, 0.
0.02000, 0.
0.16000, 0.
0.30000, 0.
0.44000, 36.
0.58000, 44.
0.72000, 47.
0.86000, 43.
1.00000, 53.
1.14000, 37.
1.28000, 61.
1.42000, 180.
1.56000, 223.
1.70000, 4419.
1.84000, 1065.
1.98000, 64.
2.12000, 42.
2.26000, 69.
2.40000, 95.
2.54000, 40.
2.68000, 441.
2.82000, 238.
2.96000, 99.
3.10000, 30.
3.24000, 226.
3.38000, 359.
3.52000, 77.
3.66000, 511.
3.80000, 93.
3.94000, 54.
4.08000, 62.
4.22000, 31.
4.36000, 59.
4.50000, 481.
4.64000, 88.
4.78000, 101.
4.92000, 136.
5.06000, 61.
5.20000, 48.
5.34000, 61.
5.48000, 78.
5.62000, 64.
5.76000, 74.
5.90000, 252.
6.04000, 71.
6.18000, 113.
6.32000, 4431.
6.46000, 6584.
6.60000, 170.
6.74000, 97.
6.88000, 158.
7.02000, 1425.
7.16000, 466.
7.30000, 81.
7.44000, 88.
7.58000, 80.
7.72000, 80.
7.86000, 95.
8.00000, 215.
8.14000, 164.
8.28000, 117.
8.42000, 115.
8.56000, 226.
8.70000, 223.
8.84000, 144.
8.98000, 123.
9.12000, 163.
9.26000, 180.
9.40000, 141.
9.54000, 171.
9.68000, 139.
9.82000, 117.
9.96000, 150.
10.10000, 128.
10.24000, 152.
10.38000, 339.
10.52000, 1226.
10.66000, 495.
10.80000, 147.
10.94000, 162.
11.08000, 157.
11.22000, 162.
11.36000, 185.
11.50000, 153.
11.64000, 152.
11.78000, 166.
11.92000, 164.
12.06000, 160.
12.20000, 193.
12.34000, 246.
12.48000, 489.
12.62000, 1151.
12.76000, 423.
12.90000, 211.
13.04000, 201.
13.18000, 185.
13.32000, 239.
13.46000, 203.
13.60000, 173.
13.74000, 181.
13.88000, 176.
14.02000, 234.
14.16000, 310.
14.30000, 193.
14.44000, 154.
14.58000, 184.
14.72000, 338.
14.86000, 281.
15.00000, 187.
15.14000, 205.
15.28000, 179.
15.42000, 146.
15.56000, 235.
15.70000, 463.
15.84000, 366.
15.98000, 163.
16.12000, 159.
16.26000, 170.
16.40000, 158.
16.54000, 173.
16.68000, 163.
16.82000, 161.
16.96000, 180.
17.10000, 183.
17.24000, 182.
17.38000, 165.
17.52000, 233.
17.66000, 231.
17.80000, 224.
17.94000, 227.
18.08000, 247.
18.22000, 281.
18.36000, 418.
18.50000, 601.
18.64000, 835.
18.78000, 1014.
18.92000, 887.
19.06000, 666.
19.20000, 421.
19.34000, 330.
19.48000, 270.
19.62000, 197.
19.76000, 185.
19.90000, 244.
20.04000, 460.
20.18000, 579.
20.32000, 284.
20.46000, 163.
20.60000, 175.
20.74000, 230.
20.88000, 241.
21.02000, 258.
21.16000, 247.
21.30000, 217.
21.44000, 183.
21.58000, 150.
21.72000, 120.
21.86000, 105.
22.00000, 96.
22.14000, 93.
22.28000, 96.
22.42000, 92.
22.56000, 122.
22.70000, 145.
22.84000, 95.
22.98000, 76.
23.12000, 83.
23.26000, 81.
23.40000, 69.
23.54000, 66.
23.68000, 69.
23.82000, 72.
23.96000, 55.
24.10000, 61.
24.24000, 70.
24.38000, 66.
24.52000, 64.
24.66000, 53.
24.80000, 70.
24.94000, 77.
25.08000, 75.
25.22000, 66.
25.36000, 64.
25.50000, 63.
25.64000, 68.
25.78000, 59.
25.92000, 56.
26.06000, 64.
26.20000, 61.
26.34000, 53.
26.48000, 55.
26.62000, 63.
26.76000, 52.
26.90000, 53.
27.04000, 66.
27.18000, 62.
27.32000, 52.
27.46000, 48.
27.60000, 55.
27.74000, 49.
27.88000, 44.
28.02000, 50.
28.16000, 58.
28.30000, 49.
28.44000, 48.
28.58000, 62.
28.72000, 45.
28.86000, 51.
29.00000, 41.
29.14000, 45.
29.28000, 42.
29.42000, 37.
29.56000, 30.
29.70000, 36.
29.84000, 37.
29.98000, 30.
30.12000, 35.
30.26000, 32.
30.40000, 32.
30.54000, 29.
30.68000, 42.
30.82000, 23.
30.96000, 34.
31.10000, 30.
31.24000, 30.
31.38000, 33.
31.52000, 37.
31.66000, 34.
31.80000, 39.
31.94000, 41.
32.08000, 32.
32.22000, 35.
32.36000, 25.
32.50000, 29.
32.64000, 26.
32.78000, 28.
32.92000, 32.
33.06000, 28.
33.20000, 20.
33.34000, 27.
33.48000, 22.
33.62000, 15.
33.76000, 17.
33.90000, 29.
34.04000, 33.
34.18000, 18.
34.32000, 17.
34.46000, 21.
34.60000, 16.
34.74000, 19.
34.88000, 20.
35.02000, 20.
35.16000, 15.
35.30000, 16.
35.44000, 25.
35.58000, 21.
35.72000, 16.
35.86000, 23.
36.00000, 16.
36.14000, 13.
36.28000, 22.
36.42000, 15.
36.56000, 16.
36.70000, 7.
36.84000, 12.
36.98000, 9.
37.12000, 15.
37.26000, 14.
37.40000, 10.
37.54000, 17.
37.68000, 12.
37.82000, 10.
37.96000, 9.
38.10000, 9.
38.24000, 7.
38.38000, 8.
38.52000, 7.
38.66000, 7.
38.80000, 6.
38.94000, 8.
39.08000, 5.
39.22000, 5.
39.36000, 6.
39.50000, 9.
39.64000, 5.
39.78000, 7.
39.92000, 10.
40.06000, 2.
40.20000, 5.
40.34000, 5.
40.48000, 3.
40.55000, 0.
#ENDOFDATA   :