File: sample_data/data/Al.txt
#FORMAT      : EMSA/MAS Spectral Data File
#VERSION     : 1.0
#TITLE       : Spectrum 2
#DATE        : 25-NOV-2025
#TIME        : 13:30
#OWNER       : XGT7200
#NPOINTS     : 4096.
#NCOLUMNS    : 1.
#XUNITS      : keV
#YUNITS      : counts
#DATATYPE    : XY
#XPERCHAN    : 0.0100000
#OFFSET      : -0.400000
#SIGNALTYPE  : EDS
#CHOFFSET    : 40.0000
#LIVETIME    : 30
#REALTIME    : 34.2373
#BEAMKV      : 30.0000
#PROBECUR    : 1.00000E+006
#MAGCAM      : 100.000
#XTILTSTGE   : 0.0
#AZIMANGLE   : 0.0
#ELEVANGLE   : 45.0
#XPOSITION mm: 0.0000
#YPOSITION mm: 0.0000
#ZPOSITION mm: 0.0000
##OXINSTPT   : 4
##OXINSTSTROB: 71.26
#SPECTRUM    : Spectral Data Starts Here
-0.40000, 0.
-0.26000, 0.
-0.12000, 0.
0.02000, 0.
0.16000, 0.
0.30000, 0.
0.44000, 4.
0.58000, 6.
0.72000, 9.
0.86000, 10.
1.00000, 22.
1.14000, 15.
1.28000, 21.
1.42000, 1018.
1.56000, 1287.
1.70000, 240.
1.84000, 47.
1.98000, 5.
2.12000, 3.
2.26000, 9.
2.40000, 7.
2.54000, 15.
2.68000, 1537.
2.82000, 85.
2.96000, 12.
3.10000, 11.
3.24000, 4.
3.38000, 8.
3.52000, 1.
3.66000, 3.
3.80000, 2.
3.94000, 4.
4.08000, 4.
4.22000, 11.
4.36000, 12.
4.50000, 15.
4.64000, 4.
4.78000, 9.
4.92000, 6.
5.06000, 19.
5.20000, 56.
5.34000, 15.
5.48000, 12.
5.62000, 8.
5.76000, 9.
5.90000, 5.
6.04000, 15.
6.18000, 10.
6.32000, 14.
6.46000, 9.
6.60000, 12.
6.74000, 27.
6.88000, 33.
7.02000, 42.
7.16000, 5.
7.30000, 20.
7.44000, 12.
7.58000, 19.
7.72000, 20.
7.86000, 15.
8.00000, 32.
8.14000, 42.
8.28000, 17.
8.42000, 20.
8.56000, 16.
8.70000, 18.
8.84000, 15.
8.98000, 17.
9.12000, 31.
9.26000, 30.
9.40000, 35.
9.54000, 31.
9.68000, 26.
9.82000, 34.
9.96000, 31.
10.10000, 25.
10.24000, 41.
10.38000, 30.
10.52000, 22.
10.66000, 23.
10.80000, 34.
10.94000, 28.
11.08000, 24.
11.22000, 27.
11.36000, 25.
11.50000, 23.
11.64000, 35.
11.78000, 34.
11.92000, 29.
12.06000, 36.
12.20000, 27.
12.34000, 27.
12.48000, 25.
12.62000, 34.
12.76000, 29.
12.90000, 41.
13.04000, 34.
13.18000, 22.
13.32000, 27.
13.46000, 29.
13.60000, 35.
13.74000, 22.
13.88000, 26.
14.02000, 34.
14.16000, 28.
14.30000, 27.
14.44000, 25.
14.58000, 22.
14.72000, 29.
14.86000, 31.
15.00000, 20.
15.14000, 25.
15.28000, 14.
15.42000, 22.
15.56000, 15.
15.70000, 22.
15.84000, 25.
15.98000, 27.
16.12000, 22.
16.26000, 22.
16.40000, 25.
16.54000, 28.
16.68000, 16.
16.82000, 27.
16.96000, 23.
17.10000, 30.
17.24000, 27.
17.38000, 34.
17.52000, 29.
17.66000, 25.
17.80000, 21.
17.94000, 31.
18.08000, 29.
18.22000, 25.
18.36000, 27.
18.50000, 43.
18.64000, 60.
18.78000, 46.
18.92000, 43.
19.06000, 30.
19.20000, 17.
19.34000, 26.
19.48000, 17.
19.62000, 27.
19.76000, 18.
19.90000, 20.
20.04000, 31.
20.18000, 40.
20.32000, 27.
20.46000, 17.
20.60000, 20.
20.74000, 24.
20.88000, 22.
21.02000, 17.
21.16000, 20.
21.30000, 26.
21.44000, 21.
21.58000, 14.
21.72000, 9.
21.86000, 10.
22.00000, 5.
22.14000, 8.
22.28000, 13.
22.42000, 10.
22.56000, 13.
22.70000, 15.
22.84000, 7.
22.98000, 7.
23.12000, 8.
23.26000, 7.
23.40000, 10.
23.54000, 10.
23.68000, 6.
23.82000, 9.
23.96000, 8.
24.10000, 6.
24.24000, 9.
24.38000, 2.
24.52000, 3.
24.66000, 2.
24.80000, 5.
24.94000, 4.
25.08000, 6.
25.22000, 3.
25.36000, 10.
25.50000, 3.
25.64000, 3.
25.78000, 3.
25.92000, 2.
26.06000, 2.
26.20000, 2.
26.34000, 0.
26.48000, 1.
26.62000, 4.
26.76000, 2.
26.90000, 4.
27.04000, 0.
27.18000, 1.
27.32000, 0.
27.46000, 2.
27.60000, 0.
27.74000, 0.
27.88000, 0.
28.02000, 0.
28.16000, 1.
28.30000, 0.
28.44000, 0.
28.58000, 0.
28.72000, 0.
28.86000, 1.
29.00000, 0.
29.14000, 0.
29.28000, 1.
29.42000, 0.
29.56000, 1.
29.70000, 0.
29.84000, 0.
29.98000, 0.
30.12000, 0.
30.26000, 0.
30.40000, 0.
30.54000, 0.
30.68000, 0.
30.82000, 0.
30.96000, 0.
31.10000, 0.
31.24000, 0.
31.38000, 0.
31.52000, 0.
31.66000, 0.
31.80000, 0.
31.94000, 0.
32.08000, 0.
32.22000, 0.
32.36000, 0.
32.50000, 0.
32.64000, 0.
32.78000, 0.
32.92000, 0.
33.06000, 0.
33.20000, 0.
33.34000, 0.
33.48000, 0.
33.62000, 0.
33.76000, 0.
33.90000, 0.
34.04000, 0.
34.18000, 0.
34.32000, 0.
34.46000, 0.
34.60000, 0.
34.74000, 0.
34.88000, 1.
35.02000, 0.
35.16000, 0.
35.30000, 1.
35.44000, 0.
35.58000, 0.
35.72000, 0.
35.86000, 0.
36.00000, 0.
36.14000, 0.
36.28000, 0.
36.42000, 0.
36.56000, 0.
36.70000, 0.
36.84000, 0.
36.98000, 0.
37.12000, 0.
37.26000, 0.
37.40000, 0.
37.54000, 0.
37.68000, 0.
37.82000, 0.
37.96000, 0.
38.10000, 0.
38.24000, 0.
38.38000, 0.
38.52000, 0.
38.66000, 0.
38.80000, 0.
38.94000, 0.
39.08000, 0.
39.22000, 0.
39.36000, 0.
39.50000, 0.
39.64000, 0.
39.78000, 0.
39.92000, 0.
40.06000, 0.
40.20000, 0.
40.34000, 0.
40.48000, 0.
40.55000, 0.
#ENDOFDATA   :