File: sample_data/data/Cu.txt
#FORMAT      : EMSA/MAS Spectral Data File
#VERSION     : 1.0
#TITLE       : Spectrum 1
#DATE        : 25-NOV-2025
#TIME        : 13:29
#OWNER       : XGT7200
#NPOINTS     : 4096.
#NCOLUMNS    : 1.
#XUNITS      : keV
#YUNITS      : counts
#DATATYPE    : XY
#XPERCHAN    : 0.0100000
#OFFSET      : -0.400000
#SIGNALTYPE  : EDS
#CHOFFSET    : 40.0000
#LIVETIME    : 30
#REALTIME    : 37.3416
#BEAMKV      : 30.0000
#PROBECUR    : 1.00000E+006
#MAGCAM      : 100.000
#XTILTSTGE   : 0.0
#AZIMANGLE   : 0.0
#ELEVANGLE   : 45.0
#XPOSITION mm: 0.0000
#YPOSITION mm: 0.0000
#ZPOSITION mm: 0.0000
##OXINSTPT   : 4
##OXINSTSTROB: 71.42
#SPECTRUM    : Spectral Data Starts Here
-0.40000, 0.
-0.26000, 0.
-0.12000, 0.
0.02000, 0.
0.16000, 0.
0.30000, 0.
0.44000, 5.
0.58000, 2.
0.72000, 4.
0.86000, 16.
1.00000, 15.
1.14000, 1.
1.28000, 7.
1.42000, 6.
1.56000, 5.
1.70000, 4.
1.84000, 6.
1.98000, 9.
2.12000, 4.
2.26000, 15.
2.40000, 10.
2.54000, 5.
2.68000, 44.
2.82000, 25.
2.96000, 72.
3.10000, 45.
3.24000, 9.
3.38000, 7.
3.52000, 23.
3.66000, 13.
3.80000, 10.
3.94000, 5.
4.08000, 9.
4.22000, 4.
4.36000, 5.
4.50000, 12.
4.64000, 7.
4.78000, 10.
4.92000, 124.
5.06000, 33.
5.20000, 13.
5.34000, 16.
5.48000, 11.
5.62000, 15.
5.76000, 139.
5.90000, 53.
6.04000, 34.
6.18000, 37.
6.32000, 87.
6.46000, 22.
6.60000, 20.
6.74000, 23.
6.88000, 21.
7.02000, 37.
7.16000, 36.
7.30000, 27.
7.44000, 39.
7.58000, 169.
7.72000, 180.
7.86000, 1291.
8.00000, 27606.
8.14000, 10649.
8.28000, 137.
8.42000, 92.
8.56000, 111.
8.70000, 208.
8.84000, 3287.
8.98000, 2503.
9.12000, 42.
9.26000, 4.
9.40000, 1.
9.54000, 2.
9.68000, 2.
9.82000, 2.
9.96000, 6.
10.10000, 4.
10.24000, 13.
10.38000, 12.
10.52000, 9.
10.66000, 0.
10.80000, 6.
10.94000, 4.
11.08000, 11.
11.22000, 7.
11.36000, 1.
11.50000, 8.
11.64000, 8.
11.78000, 1.
11.92000, 3.
12.06000, 8.
12.20000, 3.
12.34000, 6.
12.48000, 10.
12.62000, 7.
12.76000, 6.
12.90000, 8.
13.04000, 8.
13.18000, 7.
13.32000, 8.
13.46000, 8.
13.60000, 3.
13.74000, 6.
13.88000, 1.
14.02000, 6.
14.16000, 6.
14.30000, 10.
14.44000, 10.
14.58000, 4.
14.72000, 4.
14.86000, 5.
15.00000, 4.
15.14000, 7.
15.28000, 7.
15.42000, 1.
15.56000, 3.
15.70000, 8.
15.84000, 17.
15.98000, 81.
16.12000, 171.
16.26000, 30.
16.40000, 6.
16.54000, 6.
16.68000, 6.
16.82000, 26.
16.96000, 56.
17.10000, 21.
17.24000, 4.
17.38000, 10.
17.52000, 7.
17.66000, 9.
17.80000, 5.
17.94000, 4.
18.08000, 6.
18.22000, 5.
18.36000, 8.
18.50000, 8.
18.64000, 11.
18.78000, 4.
18.92000, 5.
19.06000, 4.
19.20000, 6.
19.34000, 3.
19.48000, 4.
19.62000, 3.
19.76000, 3.
19.90000, 4.
20.04000, 9.
20.18000, 11.
20.32000, 10.
20.46000, 3.
20.60000, 5.
20.74000, 3.
20.88000, 2.
21.02000, 2.
21.16000, 4.
21.30000, 3.
21.44000, 2.
21.58000, 4.
21.72000, 3.
21.86000, 3.
22.00000, 3.
22.14000, 1.
22.28000, 0.
22.42000, 3.
22.56000, 0.
22.70000, 3.
22.84000, 0.
22.98000, 2.
23.12000, 7.
23.26000, 1.
23.40000, 0.
23.54000, 0.
23.68000, 0.
23.82000, 4.
23.96000, 1.
24.10000, 2.
24.24000, 0.
24.38000, 1.
24.52000, 1.
24.66000, 2.
24.80000, 1.
24.94000, 0.
25.08000, 1.
25.22000, 1.
25.36000, 0.
25.50000, 0.
25.64000, 0.
25.78000, 1.
25.92000, 0.
26.06000, 1.
26.20000, 0.
26.34000, 0.
26.48000, 1.
26.62000, 0.
26.76000, 0.
26.90000, 0.
27.04000, 0.
27.18000, 0.
27.32000, 0.
27.46000, 1.
27.60000, 0.
27.74000, 0.
27.88000, 0.
28.02000, 1.
28.16000, 0.
28.30000, 1.
28.44000, 0.
28.58000, 0.
28.72000, 0.
28.86000, 0.
29.00000, 0.
29.14000, 0.
29.28000, 0.
29.42000, 1.
29.56000, 0.
29.70000, 0.
29.84000, 0.
29.98000, 0.
30.12000, 0.
30.26000, 0.
30.40000, 0.
30.54000, 0.
30.68000, 0.
30.82000, 0.
30.96000, 0.
31.10000, 1.
31.24000, 0.
31.38000, 0.
31.52000, 0.
31.66000, 0.
31.80000, 0.
31.94000, 0.
32.08000, 0.
32.22000, 0.
32.36000, 0.
32.50000, 0.
32.64000, 0.
32.78000, 0.
32.92000, 0.
33.06000, 0.
33.20000, 0.
33.34000, 0.
33.48000, 0.
33.62000, 0.
33.76000, 0.
33.90000, 0.
34.04000, 0.
34.18000, 0.
34.32000, 0.
34.46000, 0.
34.60000, 0.
34.74000, 0.
34.88000, 0.
35.02000, 0.
35.16000, 0.
35.30000, 0.
35.44000, 1.
35.58000, 0.
35.72000, 0.
35.86000, 0.
36.00000, 0.
36.14000, 0.
36.28000, 0.
36.42000, 0.
36.56000, 0.
36.70000, 0.
36.84000, 0.
36.98000, 0.
37.12000, 0.
37.26000, 0.
37.40000, 0.
37.54000, 0.
37.68000, 0.
37.82000, 0.
37.96000, 0.
38.10000, 0.
38.24000, 0.
38.38000, 0.
38.52000, 0.
38.66000, 0.
38.80000, 0.
38.94000, 0.
39.08000, 0.
39.22000, 0.
39.36000, 0.
39.50000, 0.
39.64000, 0.
39.78000, 0.
39.92000, 0.
40.06000, 0.
40.20000, 0.
40.34000, 0.
40.48000, 0.
40.55000, 0.
#ENDOFDATA   :