File: sample_data/data/cubic zirconia.txt
#FORMAT      : EMSA/MAS Spectral Data File
#VERSION     : 1.0
#TITLE       : Spectrum 1
#DATE        : 25-NOV-2025
#TIME        : 13:48
#OWNER       : XGT7200
#NPOINTS     : 4096.
#NCOLUMNS    : 1.
#XUNITS      : keV
#YUNITS      : counts
#DATATYPE    : XY
#XPERCHAN    : 0.0100000
#OFFSET      : -0.400000
#SIGNALTYPE  : EDS
#CHOFFSET    : 40.0000
#LIVETIME    : 30
#REALTIME    : 39.8817
#BEAMKV      : 30.0000
#PROBECUR    : 518000.
#MAGCAM      : 100.000
#XTILTSTGE   : 0.0
#AZIMANGLE   : 0.0
#ELEVANGLE   : 45.0
#XPOSITION mm: 0.0000
#YPOSITION mm: 0.0000
#ZPOSITION mm: 0.0000
##OXINSTPT   : 4
##OXINSTSTROB: 71.75
#SPECTRUM    : Spectral Data Starts Here
-0.40000, 0.
-0.26000, 0.
-0.12000, 0.
0.02000, 0.
0.16000, 0.
0.30000, 0.
0.44000, 44.
0.58000, 45.
0.72000, 41.
0.86000, 55.
1.00000, 38.
1.14000, 23.
1.28000, 20.
1.42000, 34.
1.56000, 34.
1.70000, 151.
1.84000, 464.
1.98000, 3447.
2.12000, 4355.
2.26000, 264.
2.40000, 39.
2.54000, 35.
2.68000, 21.
2.82000, 23.
2.96000, 14.
3.10000, 5.
3.24000, 9.
3.38000, 4.
3.52000, 7.
3.66000, 11.
3.80000, 4.
3.94000, 6.
4.08000, 17.
4.22000, 15.
4.36000, 9.
4.50000, 11.
4.64000, 8.
4.78000, 7.
4.92000, 7.
5.06000, 7.
5.20000, 7.
5.34000, 12.
5.48000, 20.
5.62000, 46.
5.76000, 610.
5.90000, 158.
6.04000, 28.
6.18000, 12.
6.32000, 26.
6.46000, 20.
6.60000, 15.
6.74000, 24.
6.88000, 24.
7.02000, 30.
7.16000, 39.
7.30000, 27.
7.44000, 32.
7.58000, 35.
7.72000, 51.
7.86000, 401.
8.00000, 187.
8.14000, 56.
8.28000, 46.
8.42000, 44.
8.56000, 39.
8.70000, 39.
8.84000, 69.
8.98000, 287.
9.12000, 168.
9.26000, 192.
9.40000, 255.
9.54000, 57.
9.68000, 73.
9.82000, 62.
9.96000, 64.
10.10000, 47.
10.24000, 55.
10.38000, 64.
10.52000, 104.
10.66000, 53.
10.80000, 78.
10.94000, 58.
11.08000, 58.
11.22000, 67.
11.36000, 57.
11.50000, 117.
11.64000, 130.
11.78000, 64.
11.92000, 63.
12.06000, 51.
12.20000, 47.
12.34000, 43.
12.48000, 39.
12.62000, 37.
12.76000, 33.
12.90000, 58.
13.04000, 61.
13.18000, 71.
13.32000, 49.
13.46000, 41.
13.60000, 66.
13.74000, 48.
13.88000, 40.
14.02000, 50.
14.16000, 65.
14.30000, 55.
14.44000, 55.
14.58000, 103.
14.72000, 831.
14.86000, 5382.
15.00000, 4372.
15.14000, 456.
15.28000, 131.
15.42000, 267.
15.56000, 3777.
15.70000, 15183.
15.84000, 8501.
15.98000, 597.
16.12000, 86.
16.26000, 52.
16.40000, 56.
16.54000, 223.
16.68000, 1032.
16.82000, 557.
16.96000, 207.
17.10000, 134.
17.24000, 40.
17.38000, 86.
17.52000, 793.
17.66000, 1804.
17.80000, 597.
17.94000, 293.
18.08000, 104.
18.22000, 16.
18.36000, 7.
18.50000, 8.
18.64000, 3.
18.78000, 7.
18.92000, 8.
19.06000, 7.
19.20000, 8.
19.34000, 5.
19.48000, 7.
19.62000, 10.
19.76000, 10.
19.90000, 6.
20.04000, 8.
20.18000, 11.
20.32000, 9.
20.46000, 2.
20.60000, 1.
20.74000, 7.
20.88000, 4.
21.02000, 3.
21.16000, 3.
21.30000, 3.
21.44000, 3.
21.58000, 2.
21.72000, 1.
21.86000, 1.
22.00000, 2.
22.14000, 2.
22.28000, 3.
22.42000, 2.
22.56000, 3.
22.70000, 0.
22.84000, 2.
22.98000, 4.
23.12000, 3.
23.26000, 2.
23.40000, 1.
23.54000, 1.
23.68000, 3.
23.82000, 5.
23.96000, 5.
24.10000, 5.
24.24000, 3.
24.38000, 0.
24.52000, 4.
24.66000, 4.
24.80000, 4.
24.94000, 3.
25.08000, 3.
25.22000, 4.
25.36000, 5.
25.50000, 2.
25.64000, 1.
25.78000, 2.
25.92000, 1.
26.06000, 0.
26.20000, 2.
26.34000, 2.
26.48000, 2.
26.62000, 2.
26.76000, 1.
26.90000, 4.
27.04000, 4.
27.18000, 0.
27.32000, 0.
27.46000, 1.
27.60000, 2.
27.74000, 2.
27.88000, 2.
28.02000, 1.
28.16000, 2.
28.30000, 2.
28.44000, 0.
28.58000, 2.
28.72000, 0.
28.86000, 1.
29.00000, 1.
29.14000, 0.
29.28000, 1.
29.42000, 2.
29.56000, 6.
29.70000, 8.
29.84000, 12.
29.98000, 5.
30.12000, 3.
30.26000, 1.
30.40000, 12.
30.54000, 30.
30.68000, 48.
30.82000, 21.
30.96000, 3.
31.10000, 2.
31.24000, 17.
31.38000, 57.
31.52000, 54.
31.66000, 23.
31.80000, 5.
31.94000, 0.
32.08000, 3.
32.22000, 2.
32.36000, 10.
32.50000, 12.
32.64000, 15.
32.78000, 7.
32.92000, 2.
33.06000, 4.
33.20000, 6.
33.34000, 13.
33.48000, 14.
33.62000, 5.
33.76000, 1.
33.90000, 1.
34.04000, 1.
34.18000, 0.
34.32000, 1.
34.46000, 1.
34.60000, 0.
34.74000, 0.
34.88000, 0.
35.02000, 0.
35.16000, 0.
35.30000, 0.
35.44000, 2.
35.58000, 0.
35.72000, 0.
35.86000, 0.
36.00000, 0.
36.14000, 0.
36.28000, 0.
36.42000, 0.
36.56000, 0.
36.70000, 0.
36.84000, 0.
36.98000, 0.
37.12000, 0.
37.26000, 0.
37.40000, 0.
37.54000, 0.
37.68000, 0.
37.82000, 0.
37.96000, 0.
38.10000, 0.
38.24000, 0.
38.38000, 0.
38.52000, 0.
38.66000, 0.
38.80000, 0.
38.94000, 0.
39.08000, 0.
39.22000, 0.
39.36000, 0.
39.50000, 0.
39.64000, 0.
39.78000, 0.
39.92000, 0.
40.06000, 0.
40.20000, 0.
40.34000, 0.
40.48000, 0.
40.55000, 0.
#ENDOFDATA   :