File: sample_data/data/Fe.txt
#FORMAT      : EMSA/MAS Spectral Data File
#VERSION     : 1.0
#TITLE       : Spectrum 6
#DATE        : 25-NOV-2025
#TIME        : 13:34
#OWNER       : XGT7200
#NPOINTS     : 4096.
#NCOLUMNS    : 1.
#XUNITS      : keV
#YUNITS      : counts
#DATATYPE    : XY
#XPERCHAN    : 0.0100000
#OFFSET      : -0.400000
#SIGNALTYPE  : EDS
#CHOFFSET    : 40.0000
#LIVETIME    : 30
#REALTIME    : 36.4027
#BEAMKV      : 30.0000
#PROBECUR    : 1.00000E+006
#MAGCAM      : 100.000
#XTILTSTGE   : 0.0
#AZIMANGLE   : 0.0
#ELEVANGLE   : 45.0
#XPOSITION mm: 0.0000
#YPOSITION mm: 0.0000
#ZPOSITION mm: 0.0000
##OXINSTPT   : 4
##OXINSTSTROB: 71.25
##OXINSTELEMS: 13,14,16,17,24,26,34,37,45,48,57,91
##OXINSTLABEL: 14, 1.740, Si
##OXINSTLABEL: 26, 6.404, Fe
##OXINSTLABEL: 26, 7.058, Fe
##OXINSTLABEL: 26, 0.705, Fe
##OXINSTLABEL: 26, 0.628, Fe
##OXINSTLABEL: 48, 23.174, Cd
##OXINSTLABEL: 48, 26.096, Cd
##OXINSTLABEL: 48, 26.644, Cd
##OXINSTLABEL: 48, 3.134, Cd
##OXINSTLABEL: 48, 3.317, Cd
##OXINSTLABEL: 48, 2.957, Cd
##OXINSTLABEL: 48, 3.951, Cd
##OXINSTLABEL: 48, 2.767, Cd
##OXINSTLABEL: 24, 5.415, Cr
##OXINSTLABEL: 24, 5.947, Cr
##OXINSTLABEL: 24, 0.573, Cr
##OXINSTLABEL: 24, 0.510, Cr
##OXINSTLABEL: 13, 1.487, Al
##OXINSTLABEL: 34, 11.223, Se
##OXINSTLABEL: 34, 12.496, Se
##OXINSTLABEL: 34, 1.379, Se
##OXINSTLABEL: 34, 1.245, Se
##OXINSTLABEL: 34, 1.204, Se
##OXINSTLABEL: 45, 20.216, Rh
##OXINSTLABEL: 45, 22.724, Rh
##OXINSTLABEL: 45, 23.173, Rh
##OXINSTLABEL: 45, 2.697, Rh
##OXINSTLABEL: 45, 2.834, Rh
##OXINSTLABEL: 45, 2.519, Rh
##OXINSTLABEL: 45, 3.364, Rh
##OXINSTLABEL: 45, 2.377, Rh
##OXINSTLABEL: 91, 13.291, Pa
##OXINSTLABEL: 91, 16.702, Pa
##OXINSTLABEL: 91, 16.025, Pa
##OXINSTLABEL: 91, 14.947, Pa
##OXINSTLABEL: 91, 19.569, Pa
##OXINSTLABEL: 91, 19.872, Pa
##OXINSTLABEL: 91, 11.366, Pa
##OXINSTLABEL: 91, 3.083, Pa
##OXINSTLABEL: 91, 3.240, Pa
##OXINSTLABEL: 91, 3.466, Pa
##OXINSTLABEL: 91, 2.388, Pa
##OXINSTLABEL: 91, 4.261, Pa
##OXINSTLABEL: 16, 2.308, S
##OXINSTLABEL: 16, 2.464, S
##OXINSTLABEL: 57, 33.442, La
##OXINSTLABEL: 57, 33.035, La
##OXINSTLABEL: 57, 37.802, La
##OXINSTLABEL: 57, 38.731, La
##OXINSTLABEL: 57, 4.651, La
##OXINSTLABEL: 57, 5.042, La
##OXINSTLABEL: 57, 5.384, La
##OXINSTLABEL: 57, 4.525, La
##OXINSTLABEL: 57, 5.789, La
##OXINSTLABEL: 57, 6.060, La
##OXINSTLABEL: 57, 4.125, La
##OXINSTLABEL: 57, 0.833, La
##OXINSTLABEL: 57, 1.026, La
##OXINSTLABEL: 57, 0.638, La
##OXINSTLABEL: 17, 2.622, Cl
##OXINSTLABEL: 17, 2.816, Cl
##OXINSTLABEL: 17, 0.184, Cl
##OXINSTLABEL: 37, 13.396, Rb
##OXINSTLABEL: 37, 14.962, Rb
##OXINSTLABEL: 37, 1.694, Rb
##OXINSTLABEL: 37, 1.542, Rb
##OXINSTLABEL: 37, 1.482, Rb
#SPECTRUM    : Spectral Data Starts Here
-0.40000, 0.
-0.26000, 0.
-0.12000, 0.
0.02000, 0.
0.16000, 0.
0.30000, 0.
0.44000, 3.
0.58000, 0.
0.72000, 3.
0.86000, 0.
1.00000, 4.
1.14000, 2.
1.28000, 0.
1.42000, 1.
1.56000, 4.
1.70000, 24.
1.84000, 11.
1.98000, 6.
2.12000, 8.
2.26000, 15.
2.40000, 7.
2.54000, 7.
2.68000, 40.
2.82000, 23.
2.96000, 10.
3.10000, 135.
3.24000, 18.
3.38000, 10.
3.52000, 4.
3.66000, 13.
3.80000, 6.
3.94000, 10.
4.08000, 8.
4.22000, 6.
4.36000, 44.
4.50000, 43.
4.64000, 130.
4.78000, 28.
4.92000, 20.
5.06000, 8.
5.20000, 25.
5.34000, 146.
5.48000, 91.
5.62000, 26.
5.76000, 17.
5.90000, 57.
6.04000, 54.
6.18000, 256.
6.32000, 13665.
6.46000, 19842.
6.60000, 238.
6.74000, 72.
6.88000, 256.
7.02000, 4002.
7.16000, 1198.
7.30000, 2.
7.44000, 5.
7.58000, 6.
7.72000, 4.
7.86000, 1.
8.00000, 3.
8.14000, 12.
8.28000, 31.
8.42000, 7.
8.56000, 2.
8.70000, 4.
8.84000, 8.
8.98000, 4.
9.12000, 3.
9.26000, 10.
9.40000, 14.
9.54000, 5.
9.68000, 5.
9.82000, 11.
9.96000, 3.
10.10000, 4.
10.24000, 5.
10.38000, 6.
10.52000, 4.
10.66000, 5.
10.80000, 13.
10.94000, 7.
11.08000, 7.
11.22000, 27.
11.36000, 6.
11.50000, 2.
11.64000, 6.
11.78000, 3.
11.92000, 9.
12.06000, 12.
12.20000, 13.
12.34000, 6.
12.48000, 13.
12.62000, 20.
12.76000, 115.
12.90000, 74.
13.04000, 8.
13.18000, 5.
13.32000, 18.
13.46000, 49.
13.60000, 18.
13.74000, 5.
13.88000, 6.
14.02000, 7.
14.16000, 11.
14.30000, 5.
14.44000, 7.
14.58000, 10.
14.72000, 3.
14.86000, 9.
15.00000, 4.
15.14000, 6.
15.28000, 4.
15.42000, 4.
15.56000, 6.
15.70000, 5.
15.84000, 6.
15.98000, 5.
16.12000, 7.
16.26000, 6.
16.40000, 8.
16.54000, 4.
16.68000, 5.
16.82000, 2.
16.96000, 1.
17.10000, 7.
17.24000, 10.
17.38000, 4.
17.52000, 4.
17.66000, 6.
17.80000, 6.
17.94000, 11.
18.08000, 4.
18.22000, 11.
18.36000, 6.
18.50000, 6.
18.64000, 5.
18.78000, 8.
18.92000, 6.
19.06000, 6.
19.20000, 4.
19.34000, 5.
19.48000, 3.
19.62000, 1.
19.76000, 2.
19.90000, 6.
20.04000, 8.
20.18000, 22.
20.32000, 3.
20.46000, 1.
20.60000, 5.
20.74000, 4.
20.88000, 4.
21.02000, 3.
21.16000, 4.
21.30000, 2.
21.44000, 2.
21.58000, 6.
21.72000, 0.
21.86000, 0.
22.00000, 2.
22.14000, 1.
22.28000, 4.
22.42000, 5.
22.56000, 2.
22.70000, 3.
22.84000, 6.
22.98000, 2.
23.12000, 1.
23.26000, 3.
23.40000, 0.
23.54000, 2.
23.68000, 1.
23.82000, 2.
23.96000, 0.
24.10000, 2.
24.24000, 1.
24.38000, 1.
24.52000, 1.
24.66000, 1.
24.80000, 1.
24.94000, 0.
25.08000, 0.
25.22000, 1.
25.36000, 1.
25.50000, 1.
25.64000, 3.
25.78000, 0.
25.92000, 0.
26.06000, 0.
26.20000, 0.
26.34000, 1.
26.48000, 0.
26.62000, 0.
26.76000, 2.
26.90000, 0.
27.04000, 1.
27.18000, 0.
27.32000, 0.
27.46000, 0.
27.60000, 0.
27.74000, 0.
27.88000, 0.
28.02000, 1.
28.16000, 0.
28.30000, 1.
28.44000, 0.
28.58000, 0.
28.72000, 0.
28.86000, 0.
29.00000, 0.
29.14000, 1.
29.28000, 1.
29.42000, 0.
29.56000, 0.
29.70000, 0.
29.84000, 0.
29.98000, 1.
30.12000, 0.
30.26000, 0.
30.40000, 0.
30.54000, 0.
30.68000, 0.
30.82000, 0.
30.96000, 0.
31.10000, 0.
31.24000, 0.
31.38000, 0.
31.52000, 0.
31.66000, 0.
31.80000, 0.
31.94000, 0.
32.08000, 0.
32.22000, 0.
32.36000, 0.
32.50000, 0.
32.64000, 0.
32.78000, 0.
32.92000, 0.
33.06000, 0.
33.20000, 0.
33.34000, 0.
33.48000, 0.
33.62000, 0.
33.76000, 0.
33.90000, 0.
34.04000, 0.
34.18000, 0.
34.32000, 0.
34.46000, 0.
34.60000, 0.
34.74000, 0.
34.88000, 0.
35.02000, 0.
35.16000, 0.
35.30000, 0.
35.44000, 0.
35.58000, 0.
35.72000, 0.
35.86000, 0.
36.00000, 0.
36.14000, 0.
36.28000, 0.
36.42000, 0.
36.56000, 0.
36.70000, 0.
36.84000, 0.
36.98000, 0.
37.12000, 0.
37.26000, 0.
37.40000, 0.
37.54000, 0.
37.68000, 0.
37.82000, 0.
37.96000, 0.
38.10000, 0.
38.24000, 0.
38.38000, 0.
38.52000, 0.
38.66000, 0.
38.80000, 0.
38.94000, 0.
39.08000, 0.
39.22000, 0.
39.36000, 0.
39.50000, 0.
39.64000, 0.
39.78000, 0.
39.92000, 0.
40.06000, 0.
40.20000, 0.
40.34000, 0.
40.48000, 0.
40.55000, 0.
#ENDOFDATA   :