File: sample_data/data/Mg.txt
#FORMAT      : EMSA/MAS Spectral Data File
#VERSION     : 1.0
#TITLE       : Spectrum 3
#DATE        : 25-NOV-2025
#TIME        : 13:31
#OWNER       : XGT7200
#NPOINTS     : 4096.
#NCOLUMNS    : 1.
#XUNITS      : keV
#YUNITS      : counts
#DATATYPE    : XY
#XPERCHAN    : 0.0100000
#OFFSET      : -0.400000
#SIGNALTYPE  : EDS
#CHOFFSET    : 40.0000
#LIVETIME    : 30
#REALTIME    : 32.1185
#BEAMKV      : 30.0000
#PROBECUR    : 1.00000E+006
#MAGCAM      : 100.000
#XTILTSTGE   : 0.0
#AZIMANGLE   : 0.0
#ELEVANGLE   : 45.0
#XPOSITION mm: 0.0000
#YPOSITION mm: 0.0000
#ZPOSITION mm: 0.0000
##OXINSTPT   : 4
##OXINSTSTROB: 71.22
#SPECTRUM    : Spectral Data Starts Here
-0.40000, 0.
-0.26000, 0.
-0.12000, 0.
0.02000, 0.
0.16000, 0.
0.30000, 0.
0.44000, 8.
0.58000, 3.
0.72000, 7.
0.86000, 5.
1.00000, 8.
1.14000, 54.
1.28000, 1664.
1.42000, 4.
1.56000, 2.
1.70000, 9.
1.84000, 2.
1.98000, 1.
2.12000, 4.
2.26000, 9.
2.40000, 20.
2.54000, 32.
2.68000, 107.
2.82000, 29.
2.96000, 10.
3.10000, 4.
3.24000, 6.
3.38000, 9.
3.52000, 1.
3.66000, 7.
3.80000, 4.
3.94000, 7.
4.08000, 3.
4.22000, 22.
4.36000, 14.
4.50000, 9.
4.64000, 32.
4.78000, 6.
4.92000, 6.
5.06000, 5.
5.20000, 12.
5.34000, 9.
5.48000, 7.
5.62000, 6.
5.76000, 26.
5.90000, 34.
6.04000, 17.
6.18000, 40.
6.32000, 38.
6.46000, 29.
6.60000, 26.
6.74000, 11.
6.88000, 11.
7.02000, 32.
7.16000, 22.
7.30000, 18.
7.44000, 17.
7.58000, 21.
7.72000, 29.
7.86000, 20.
8.00000, 18.
8.14000, 19.
8.28000, 34.
8.42000, 47.
8.56000, 28.
8.70000, 31.
8.84000, 30.
8.98000, 27.
9.12000, 28.
9.26000, 41.
9.40000, 28.
9.54000, 29.
9.68000, 27.
9.82000, 20.
9.96000, 30.
10.10000, 22.
10.24000, 32.
10.38000, 37.
10.52000, 19.
10.66000, 31.
10.80000, 29.
10.94000, 34.
11.08000, 39.
11.22000, 26.
11.36000, 31.
11.50000, 30.
11.64000, 29.
11.78000, 32.
11.92000, 37.
12.06000, 28.
12.20000, 24.
12.34000, 36.
12.48000, 33.
12.62000, 31.
12.76000, 32.
12.90000, 32.
13.04000, 31.
13.18000, 26.
13.32000, 26.
13.46000, 36.
13.60000, 37.
13.74000, 23.
13.88000, 24.
14.02000, 23.
14.16000, 29.
14.30000, 37.
14.44000, 37.
14.58000, 23.
14.72000, 36.
14.86000, 35.
15.00000, 27.
15.14000, 26.
15.28000, 34.
15.42000, 29.
15.56000, 32.
15.70000, 71.
15.84000, 42.
15.98000, 23.
16.12000, 29.
16.26000, 22.
16.40000, 35.
16.54000, 37.
16.68000, 22.
16.82000, 29.
16.96000, 27.
17.10000, 17.
17.24000, 23.
17.38000, 23.
17.52000, 38.
17.66000, 34.
17.80000, 27.
17.94000, 17.
18.08000, 40.
18.22000, 25.
18.36000, 40.
18.50000, 52.
18.64000, 44.
18.78000, 60.
18.92000, 48.
19.06000, 48.
19.20000, 40.
19.34000, 21.
19.48000, 27.
19.62000, 20.
19.76000, 13.
19.90000, 25.
20.04000, 30.
20.18000, 33.
20.32000, 23.
20.46000, 15.
20.60000, 11.
20.74000, 22.
20.88000, 27.
21.02000, 23.
21.16000, 24.
21.30000, 17.
21.44000, 23.
21.58000, 16.
21.72000, 18.
21.86000, 14.
22.00000, 7.
22.14000, 11.
22.28000, 16.
22.42000, 12.
22.56000, 14.
22.70000, 9.
22.84000, 9.
22.98000, 8.
23.12000, 6.
23.26000, 7.
23.40000, 8.
23.54000, 13.
23.68000, 8.
23.82000, 12.
23.96000, 1.
24.10000, 11.
24.24000, 7.
24.38000, 11.
24.52000, 5.
24.66000, 4.
24.80000, 2.
24.94000, 6.
25.08000, 5.
25.22000, 6.
25.36000, 3.
25.50000, 4.
25.64000, 4.
25.78000, 4.
25.92000, 2.
26.06000, 1.
26.20000, 5.
26.34000, 3.
26.48000, 0.
26.62000, 4.
26.76000, 0.
26.90000, 0.
27.04000, 0.
27.18000, 0.
27.32000, 1.
27.46000, 0.
27.60000, 0.
27.74000, 1.
27.88000, 0.
28.02000, 1.
28.16000, 1.
28.30000, 1.
28.44000, 0.
28.58000, 0.
28.72000, 0.
28.86000, 0.
29.00000, 0.
29.14000, 1.
29.28000, 0.
29.42000, 0.
29.56000, 0.
29.70000, 0.
29.84000, 0.
29.98000, 0.
30.12000, 0.
30.26000, 0.
30.40000, 0.
30.54000, 0.
30.68000, 0.
30.82000, 0.
30.96000, 0.
31.10000, 1.
31.24000, 0.
31.38000, 0.
31.52000, 0.
31.66000, 0.
31.80000, 0.
31.94000, 0.
32.08000, 0.
32.22000, 0.
32.36000, 0.
32.50000, 0.
32.64000, 0.
32.78000, 0.
32.92000, 0.
33.06000, 0.
33.20000, 0.
33.34000, 0.
33.48000, 0.
33.62000, 0.
33.76000, 0.
33.90000, 0.
34.04000, 0.
34.18000, 0.
34.32000, 0.
34.46000, 0.
34.60000, 0.
34.74000, 0.
34.88000, 0.
35.02000, 0.
35.16000, 0.
35.30000, 0.
35.44000, 0.
35.58000, 0.
35.72000, 0.
35.86000, 0.
36.00000, 0.
36.14000, 0.
36.28000, 0.
36.42000, 0.
36.56000, 0.
36.70000, 0.
36.84000, 0.
36.98000, 0.
37.12000, 0.
37.26000, 0.
37.40000, 0.
37.54000, 0.
37.68000, 1.
37.82000, 0.
37.96000, 0.
38.10000, 0.
38.24000, 0.
38.38000, 0.
38.52000, 0.
38.66000, 0.
38.80000, 0.
38.94000, 0.
39.08000, 0.
39.22000, 0.
39.36000, 0.
39.50000, 0.
39.64000, 0.
39.78000, 0.
39.92000, 0.
40.06000, 0.
40.20000, 0.
40.34000, 0.
40.48000, 0.
40.55000, 0.
#ENDOFDATA   :