File: sample_data/data/NIST 2586.txt
#FORMAT      : EMSA/MAS Spectral Data File
#VERSION     : 1.0
#TITLE       : Spectrum 27
#DATE        : 21-AUG-2025
#TIME        : 15:31
#OWNER       : XGT7200
#NPOINTS     : 4096.
#NCOLUMNS    : 1.
#XUNITS      : keV
#YUNITS      : counts
#DATATYPE    : XY
#XPERCHAN    : 0.0100000
#OFFSET      : -0.400000
#SIGNALTYPE  : EDS
#CHOFFSET    : 40.0000
#LIVETIME    : 30
#REALTIME    : 39.5498
#BEAMKV      : 50.0000
#PROBECUR    : 669000.
#MAGCAM      : 100.000
#XTILTSTGE   : 0.0
#AZIMANGLE   : 0.0
#ELEVANGLE   : 45.0
#XPOSITION mm: 0.0000
#YPOSITION mm: 0.0000
#ZPOSITION mm: 0.0000
##OXINSTPT   : 4
##OXINSTSTROB: 72.05
#SPECTRUM    : Spectral Data Starts Here
-0.40000, 0.
-0.26000, 0.
-0.12000, 0.
0.02000, 0.
0.16000, 0.
0.30000, 0.
0.44000, 32.
0.58000, 38.
0.72000, 48.
0.86000, 34.
1.00000, 39.
1.14000, 33.
1.28000, 85.
1.42000, 196.
1.56000, 227.
1.70000, 3358.
1.84000, 736.
1.98000, 74.
2.12000, 29.
2.26000, 51.
2.40000, 44.
2.54000, 40.
2.68000, 482.
2.82000, 264.
2.96000, 97.
3.10000, 32.
3.24000, 152.
3.38000, 229.
3.52000, 55.
3.66000, 1096.
3.80000, 184.
3.94000, 90.
4.08000, 111.
4.22000, 37.
4.36000, 50.
4.50000, 778.
4.64000, 117.
4.78000, 62.
4.92000, 166.
5.06000, 47.
5.20000, 56.
5.34000, 69.
5.48000, 83.
5.62000, 59.
5.76000, 81.
5.90000, 310.
6.04000, 86.
6.18000, 151.
6.32000, 7278.
6.46000, 10440.
6.60000, 183.
6.74000, 95.
6.88000, 237.
7.02000, 2403.
7.16000, 773.
7.30000, 96.
7.44000, 103.
7.58000, 67.
7.72000, 77.
7.86000, 92.
8.00000, 126.
8.14000, 155.
8.28000, 135.
8.42000, 81.
8.56000, 229.
8.70000, 195.
8.84000, 118.
8.98000, 114.
9.12000, 123.
9.26000, 120.
9.40000, 118.
9.54000, 142.
9.68000, 120.
9.82000, 125.
9.96000, 126.
10.10000, 108.
10.24000, 109.
10.38000, 141.
10.52000, 211.
10.66000, 196.
10.80000, 134.
10.94000, 145.
11.08000, 137.
11.22000, 139.
11.36000, 131.
11.50000, 142.
11.64000, 123.
11.78000, 158.
11.92000, 147.
12.06000, 134.
12.20000, 134.
12.34000, 137.
12.48000, 184.
12.62000, 274.
12.76000, 193.
12.90000, 171.
13.04000, 158.
13.18000, 141.
13.32000, 195.
13.46000, 162.
13.60000, 145.
13.74000, 153.
13.88000, 142.
14.02000, 183.
14.16000, 221.
14.30000, 146.
14.44000, 130.
14.58000, 140.
14.72000, 165.
14.86000, 172.
15.00000, 162.
15.14000, 128.
15.28000, 116.
15.42000, 142.
15.56000, 183.
15.70000, 336.
15.84000, 259.
15.98000, 156.
16.12000, 134.
16.26000, 135.
16.40000, 140.
16.54000, 141.
16.68000, 135.
16.82000, 141.
16.96000, 138.
17.10000, 124.
17.24000, 149.
17.38000, 122.
17.52000, 176.
17.66000, 211.
17.80000, 175.
17.94000, 160.
18.08000, 211.
18.22000, 257.
18.36000, 340.
18.50000, 528.
18.64000, 699.
18.78000, 810.
18.92000, 776.
19.06000, 565.
19.20000, 362.
19.34000, 279.
19.48000, 247.
19.62000, 175.
19.76000, 136.
19.90000, 210.
20.04000, 399.
20.18000, 506.
20.32000, 251.
20.46000, 139.
20.60000, 173.
20.74000, 188.
20.88000, 214.
21.02000, 239.
21.16000, 229.
21.30000, 166.
21.44000, 146.
21.58000, 145.
21.72000, 110.
21.86000, 97.
22.00000, 96.
22.14000, 88.
22.28000, 64.
22.42000, 73.
22.56000, 108.
22.70000, 142.
22.84000, 82.
22.98000, 67.
23.12000, 85.
23.26000, 66.
23.40000, 57.
23.54000, 62.
23.68000, 68.
23.82000, 77.
23.96000, 64.
24.10000, 55.
24.24000, 69.
24.38000, 62.
24.52000, 51.
24.66000, 53.
24.80000, 73.
24.94000, 56.
25.08000, 63.
25.22000, 67.
25.36000, 59.
25.50000, 69.
25.64000, 58.
25.78000, 51.
25.92000, 40.
26.06000, 46.
26.20000, 49.
26.34000, 55.
26.48000, 51.
26.62000, 43.
26.76000, 48.
26.90000, 45.
27.04000, 42.
27.18000, 47.
27.32000, 44.
27.46000, 40.
27.60000, 32.
27.74000, 56.
27.88000, 47.
28.02000, 40.
28.16000, 35.
28.30000, 32.
28.44000, 31.
28.58000, 51.
28.72000, 43.
28.86000, 36.
29.00000, 45.
29.14000, 36.
29.28000, 54.
29.42000, 41.
29.56000, 38.
29.70000, 34.
29.84000, 36.
29.98000, 23.
30.12000, 34.
30.26000, 35.
30.40000, 40.
30.54000, 35.
30.68000, 28.
30.82000, 39.
30.96000, 34.
31.10000, 33.
31.24000, 28.
31.38000, 31.
31.52000, 33.
31.66000, 28.
31.80000, 46.
31.94000, 31.
32.08000, 41.
32.22000, 32.
32.36000, 25.
32.50000, 28.
32.64000, 19.
32.78000, 19.
32.92000, 33.
33.06000, 18.
33.20000, 19.
33.34000, 15.
33.48000, 16.
33.62000, 17.
33.76000, 22.
33.90000, 17.
34.04000, 20.
34.18000, 10.
34.32000, 27.
34.46000, 22.
34.60000, 20.
34.74000, 13.
34.88000, 17.
35.02000, 14.
35.16000, 15.
35.30000, 14.
35.44000, 13.
35.58000, 15.
35.72000, 12.
35.86000, 18.
36.00000, 16.
36.14000, 14.
36.28000, 27.
36.42000, 16.
36.56000, 10.
36.70000, 10.
36.84000, 7.
36.98000, 7.
37.12000, 12.
37.26000, 14.
37.40000, 11.
37.54000, 18.
37.68000, 8.
37.82000, 9.
37.96000, 6.
38.10000, 13.
38.24000, 6.
38.38000, 8.
38.52000, 9.
38.66000, 7.
38.80000, 8.
38.94000, 2.
39.08000, 10.
39.22000, 4.
39.36000, 9.
39.50000, 8.
39.64000, 4.
39.78000, 2.
39.92000, 2.
40.06000, 3.
40.20000, 10.
40.34000, 7.
40.48000, 4.
40.55000, 0.
#ENDOFDATA   :