File: sample_data/data/STDS standard.txt
#FORMAT      : EMSA/MAS Spectral Data File
#VERSION     : 1.0
#TITLE       : Spectrum 20
#DATE        : 21-AUG-2025
#TIME        : 15:24
#OWNER       : XGT7200
#NPOINTS     : 4096.
#NCOLUMNS    : 1.
#XUNITS      : keV
#YUNITS      : counts
#DATATYPE    : XY
#XPERCHAN    : 0.0100000
#OFFSET      : -0.400000
#SIGNALTYPE  : EDS
#CHOFFSET    : 40.0000
#LIVETIME    : 30
#REALTIME    : 39.8294
#BEAMKV      : 50.0000
#PROBECUR    : 706000.
#MAGCAM      : 100.000
#XTILTSTGE   : 0.0
#AZIMANGLE   : 0.0
#ELEVANGLE   : 45.0
#XPOSITION mm: 0.0000
#YPOSITION mm: 0.0000
#ZPOSITION mm: 0.0000
##OXINSTPT   : 4
##OXINSTSTROB: 71.96
#SPECTRUM    : Spectral Data Starts Here
-0.40000, 0.
-0.26000, 0.
-0.12000, 0.
0.02000, 0.
0.16000, 0.
0.30000, 0.
0.44000, 45.
0.58000, 34.
0.72000, 34.
0.86000, 32.
1.00000, 49.
1.14000, 38.
1.28000, 87.
1.42000, 225.
1.56000, 261.
1.70000, 3096.
1.84000, 720.
1.98000, 85.
2.12000, 37.
2.26000, 46.
2.40000, 37.
2.54000, 61.
2.68000, 473.
2.82000, 230.
2.96000, 102.
3.10000, 36.
3.24000, 254.
3.38000, 394.
3.52000, 76.
3.66000, 1542.
3.80000, 246.
3.94000, 135.
4.08000, 149.
4.22000, 30.
4.36000, 46.
4.50000, 525.
4.64000, 128.
4.78000, 71.
4.92000, 134.
5.06000, 63.
5.20000, 57.
5.34000, 83.
5.48000, 88.
5.62000, 57.
5.76000, 84.
5.90000, 357.
6.04000, 107.
6.18000, 122.
6.32000, 7893.
6.46000, 10898.
6.60000, 220.
6.74000, 109.
6.88000, 218.
7.02000, 2609.
7.16000, 780.
7.30000, 85.
7.44000, 86.
7.58000, 81.
7.72000, 74.
7.86000, 110.
8.00000, 135.
8.14000, 167.
8.28000, 102.
8.42000, 99.
8.56000, 194.
8.70000, 172.
8.84000, 117.
8.98000, 101.
9.12000, 113.
9.26000, 130.
9.40000, 121.
9.54000, 140.
9.68000, 130.
9.82000, 112.
9.96000, 118.
10.10000, 116.
10.24000, 118.
10.38000, 114.
10.52000, 163.
10.66000, 133.
10.80000, 128.
10.94000, 135.
11.08000, 139.
11.22000, 130.
11.36000, 136.
11.50000, 141.
11.64000, 137.
11.78000, 134.
11.92000, 137.
12.06000, 159.
12.20000, 142.
12.34000, 125.
12.48000, 155.
12.62000, 154.
12.76000, 174.
12.90000, 180.
13.04000, 164.
13.18000, 160.
13.32000, 222.
13.46000, 206.
13.60000, 147.
13.74000, 150.
13.88000, 139.
14.02000, 325.
14.16000, 511.
14.30000, 185.
14.44000, 141.
14.58000, 160.
14.72000, 157.
14.86000, 171.
15.00000, 148.
15.14000, 137.
15.28000, 132.
15.42000, 132.
15.56000, 187.
15.70000, 321.
15.84000, 287.
15.98000, 150.
16.12000, 151.
16.26000, 148.
16.40000, 127.
16.54000, 148.
16.68000, 143.
16.82000, 131.
16.96000, 139.
17.10000, 143.
17.24000, 147.
17.38000, 142.
17.52000, 170.
17.66000, 181.
17.80000, 152.
17.94000, 199.
18.08000, 227.
18.22000, 288.
18.36000, 314.
18.50000, 534.
18.64000, 696.
18.78000, 837.
18.92000, 770.
19.06000, 542.
19.20000, 386.
19.34000, 302.
19.48000, 212.
19.62000, 176.
19.76000, 161.
19.90000, 235.
20.04000, 407.
20.18000, 522.
20.32000, 255.
20.46000, 174.
20.60000, 159.
20.74000, 190.
20.88000, 213.
21.02000, 238.
21.16000, 209.
21.30000, 157.
21.44000, 155.
21.58000, 110.
21.72000, 107.
21.86000, 109.
22.00000, 88.
22.14000, 86.
22.28000, 80.
22.42000, 66.
22.56000, 114.
22.70000, 124.
22.84000, 88.
22.98000, 63.
23.12000, 97.
23.26000, 68.
23.40000, 71.
23.54000, 65.
23.68000, 47.
23.82000, 53.
23.96000, 65.
24.10000, 59.
24.24000, 63.
24.38000, 58.
24.52000, 61.
24.66000, 56.
24.80000, 55.
24.94000, 76.
25.08000, 77.
25.22000, 71.
25.36000, 59.
25.50000, 45.
25.64000, 66.
25.78000, 61.
25.92000, 60.
26.06000, 48.
26.20000, 45.
26.34000, 49.
26.48000, 50.
26.62000, 59.
26.76000, 52.
26.90000, 49.
27.04000, 46.
27.18000, 41.
27.32000, 45.
27.46000, 31.
27.60000, 42.
27.74000, 38.
27.88000, 35.
28.02000, 47.
28.16000, 53.
28.30000, 46.
28.44000, 46.
28.58000, 45.
28.72000, 39.
28.86000, 39.
29.00000, 28.
29.14000, 38.
29.28000, 44.
29.42000, 49.
29.56000, 42.
29.70000, 51.
29.84000, 30.
29.98000, 36.
30.12000, 22.
30.26000, 28.
30.40000, 29.
30.54000, 31.
30.68000, 29.
30.82000, 22.
30.96000, 24.
31.10000, 37.
31.24000, 30.
31.38000, 29.
31.52000, 22.
31.66000, 37.
31.80000, 35.
31.94000, 26.
32.08000, 23.
32.22000, 37.
32.36000, 23.
32.50000, 24.
32.64000, 21.
32.78000, 28.
32.92000, 20.
33.06000, 21.
33.20000, 17.
33.34000, 18.
33.48000, 15.
33.62000, 18.
33.76000, 19.
33.90000, 15.
34.04000, 23.
34.18000, 19.
34.32000, 27.
34.46000, 14.
34.60000, 19.
34.74000, 21.
34.88000, 16.
35.02000, 10.
35.16000, 17.
35.30000, 22.
35.44000, 16.
35.58000, 24.
35.72000, 11.
35.86000, 15.
36.00000, 13.
36.14000, 12.
36.28000, 12.
36.42000, 14.
36.56000, 11.
36.70000, 12.
36.84000, 12.
36.98000, 8.
37.12000, 11.
37.26000, 8.
37.40000, 13.
37.54000, 11.
37.68000, 7.
37.82000, 10.
37.96000, 11.
38.10000, 7.
38.24000, 8.
38.38000, 5.
38.52000, 11.
38.66000, 6.
38.80000, 7.
38.94000, 6.
39.08000, 4.
39.22000, 7.
39.36000, 7.
39.50000, 11.
39.64000, 3.
39.78000, 9.
39.92000, 4.
40.06000, 11.
40.20000, 2.
40.34000, 4.
40.48000, 5.
40.55000, 0.
#ENDOFDATA   :