File: sample_data/data/Ti.txt
#FORMAT      : EMSA/MAS Spectral Data File
#VERSION     : 1.0
#TITLE       : Spectrum 5
#DATE        : 25-NOV-2025
#TIME        : 13:33
#OWNER       : XGT7200
#NPOINTS     : 4096.
#NCOLUMNS    : 1.
#XUNITS      : keV
#YUNITS      : counts
#DATATYPE    : XY
#XPERCHAN    : 0.0100000
#OFFSET      : -0.400000
#SIGNALTYPE  : EDS
#CHOFFSET    : 40.0000
#LIVETIME    : 30
#REALTIME    : 35.0515
#BEAMKV      : 30.0000
#PROBECUR    : 1.00000E+006
#MAGCAM      : 100.000
#XTILTSTGE   : 0.0
#AZIMANGLE   : 0.0
#ELEVANGLE   : 45.0
#XPOSITION mm: 0.0000
#YPOSITION mm: 0.0000
#ZPOSITION mm: 0.0000
##OXINSTPT   : 4
##OXINSTSTROB: 71.21
#SPECTRUM    : Spectral Data Starts Here
-0.40000, 0.
-0.26000, 0.
-0.12000, 0.
0.02000, 0.
0.16000, 0.
0.30000, 0.
0.44000, 9.
0.58000, 7.
0.72000, 6.
0.86000, 12.
1.00000, 49.
1.14000, 29.
1.28000, 4.
1.42000, 14.
1.56000, 14.
1.70000, 14.
1.84000, 11.
1.98000, 12.
2.12000, 14.
2.26000, 19.
2.40000, 12.
2.54000, 63.
2.68000, 5398.
2.82000, 2329.
2.96000, 91.
3.10000, 12.
3.24000, 28.
3.38000, 12.
3.52000, 16.
3.66000, 44.
3.80000, 18.
3.94000, 20.
4.08000, 24.
4.22000, 37.
4.36000, 623.
4.50000, 22225.
4.64000, 1548.
4.78000, 242.
4.92000, 2960.
5.06000, 245.
5.20000, 7.
5.34000, 5.
5.48000, 8.
5.62000, 6.
5.76000, 4.
5.90000, 7.
6.04000, 5.
6.18000, 2.
6.32000, 12.
6.46000, 17.
6.60000, 8.
6.74000, 5.
6.88000, 9.
7.02000, 9.
7.16000, 42.
7.30000, 27.
7.44000, 13.
7.58000, 11.
7.72000, 15.
7.86000, 6.
8.00000, 5.
8.14000, 15.
8.28000, 10.
8.42000, 21.
8.56000, 5.
8.70000, 7.
8.84000, 8.
8.98000, 73.
9.12000, 43.
9.26000, 20.
9.40000, 20.
9.54000, 17.
9.68000, 19.
9.82000, 6.
9.96000, 12.
10.10000, 11.
10.24000, 12.
10.38000, 5.
10.52000, 8.
10.66000, 16.
10.80000, 14.
10.94000, 12.
11.08000, 13.
11.22000, 9.
11.36000, 7.
11.50000, 17.
11.64000, 12.
11.78000, 15.
11.92000, 16.
12.06000, 11.
12.20000, 10.
12.34000, 5.
12.48000, 15.
12.62000, 10.
12.76000, 9.
12.90000, 12.
13.04000, 23.
13.18000, 11.
13.32000, 7.
13.46000, 14.
13.60000, 8.
13.74000, 10.
13.88000, 13.
14.02000, 13.
14.16000, 4.
14.30000, 7.
14.44000, 16.
14.58000, 4.
14.72000, 5.
14.86000, 13.
15.00000, 3.
15.14000, 14.
15.28000, 5.
15.42000, 8.
15.56000, 9.
15.70000, 16.
15.84000, 8.
15.98000, 5.
16.12000, 12.
16.26000, 13.
16.40000, 10.
16.54000, 5.
16.68000, 3.
16.82000, 11.
16.96000, 7.
17.10000, 8.
17.24000, 11.
17.38000, 5.
17.52000, 4.
17.66000, 4.
17.80000, 11.
17.94000, 4.
18.08000, 2.
18.22000, 3.
18.36000, 4.
18.50000, 9.
18.64000, 4.
18.78000, 10.
18.92000, 13.
19.06000, 7.
19.20000, 7.
19.34000, 6.
19.48000, 7.
19.62000, 3.
19.76000, 4.
19.90000, 10.
20.04000, 15.
20.18000, 17.
20.32000, 9.
20.46000, 5.
20.60000, 3.
20.74000, 5.
20.88000, 6.
21.02000, 4.
21.16000, 3.
21.30000, 7.
21.44000, 5.
21.58000, 2.
21.72000, 3.
21.86000, 4.
22.00000, 1.
22.14000, 0.
22.28000, 3.
22.42000, 3.
22.56000, 3.
22.70000, 1.
22.84000, 3.
22.98000, 2.
23.12000, 1.
23.26000, 3.
23.40000, 4.
23.54000, 1.
23.68000, 4.
23.82000, 2.
23.96000, 2.
24.10000, 2.
24.24000, 3.
24.38000, 4.
24.52000, 1.
24.66000, 2.
24.80000, 4.
24.94000, 2.
25.08000, 1.
25.22000, 4.
25.36000, 0.
25.50000, 2.
25.64000, 0.
25.78000, 0.
25.92000, 0.
26.06000, 1.
26.20000, 4.
26.34000, 0.
26.48000, 2.
26.62000, 0.
26.76000, 0.
26.90000, 1.
27.04000, 1.
27.18000, 1.
27.32000, 1.
27.46000, 0.
27.60000, 1.
27.74000, 0.
27.88000, 0.
28.02000, 1.
28.16000, 0.
28.30000, 0.
28.44000, 0.
28.58000, 0.
28.72000, 0.
28.86000, 0.
29.00000, 0.
29.14000, 0.
29.28000, 0.
29.42000, 0.
29.56000, 0.
29.70000, 0.
29.84000, 0.
29.98000, 0.
30.12000, 0.
30.26000, 0.
30.40000, 0.
30.54000, 0.
30.68000, 0.
30.82000, 0.
30.96000, 0.
31.10000, 0.
31.24000, 0.
31.38000, 0.
31.52000, 0.
31.66000, 0.
31.80000, 0.
31.94000, 0.
32.08000, 0.
32.22000, 0.
32.36000, 0.
32.50000, 0.
32.64000, 0.
32.78000, 0.
32.92000, 0.
33.06000, 0.
33.20000, 0.
33.34000, 0.
33.48000, 0.
33.62000, 0.
33.76000, 0.
33.90000, 0.
34.04000, 0.
34.18000, 0.
34.32000, 0.
34.46000, 0.
34.60000, 0.
34.74000, 0.
34.88000, 0.
35.02000, 0.
35.16000, 0.
35.30000, 0.
35.44000, 0.
35.58000, 0.
35.72000, 0.
35.86000, 0.
36.00000, 0.
36.14000, 0.
36.28000, 0.
36.42000, 0.
36.56000, 0.
36.70000, 0.
36.84000, 0.
36.98000, 0.
37.12000, 0.
37.26000, 0.
37.40000, 0.
37.54000, 0.
37.68000, 0.
37.82000, 0.
37.96000, 0.
38.10000, 0.
38.24000, 0.
38.38000, 0.
38.52000, 0.
38.66000, 0.
38.80000, 0.
38.94000, 0.
39.08000, 0.
39.22000, 0.
39.36000, 0.
39.50000, 0.
39.64000, 0.
39.78000, 0.
39.92000, 0.
40.06000, 0.
40.20000, 0.
40.34000, 0.
40.48000, 0.
40.55000, 0.
#ENDOFDATA   :