File: sample_data/data/Spectrum value from standard/stds 2/Spectrum 24.txt
#FORMAT      : EMSA/MAS Spectral Data File
#VERSION     : 1.0
#TITLE       : Spectrum 24
#DATE        : 21-AUG-2025
#TIME        : 15:28
#OWNER       : XGT7200
#NPOINTS     : 4096.
#NCOLUMNS    : 1.
#XUNITS      : keV
#YUNITS      : counts
#DATATYPE    : XY
#XPERCHAN    : 0.0100000
#OFFSET      : -0.400000
#SIGNALTYPE  : EDS
#CHOFFSET    : 40.0000
#LIVETIME    : 30
#REALTIME    : 39.5983
#BEAMKV      : 50.0000
#PROBECUR    : 683000.
#MAGCAM      : 100.000
#XTILTSTGE   : 0.0
#AZIMANGLE   : 0.0
#ELEVANGLE   : 45.0
#XPOSITION mm: 0.0000
#YPOSITION mm: 0.0000
#ZPOSITION mm: 0.0000
##OXINSTPT   : 4
##OXINSTSTROB: 71.84
#SPECTRUM    : Spectral Data Starts Here
-0.40000, 0.
-0.26000, 0.
-0.12000, 0.
0.02000, 0.
0.16000, 0.
0.30000, 0.
0.44000, 35.
0.58000, 39.
0.72000, 34.
0.86000, 40.
1.00000, 49.
1.14000, 42.
1.28000, 82.
1.42000, 203.
1.56000, 305.
1.70000, 3108.
1.84000, 702.
1.98000, 71.
2.12000, 43.
2.26000, 58.
2.40000, 40.
2.54000, 32.
2.68000, 506.
2.82000, 242.
2.96000, 92.
3.10000, 36.
3.24000, 246.
3.38000, 376.
3.52000, 82.
3.66000, 1542.
3.80000, 249.
3.94000, 119.
4.08000, 150.
4.22000, 24.
4.36000, 35.
4.50000, 466.
4.64000, 126.
4.78000, 63.
4.92000, 128.
5.06000, 58.
5.20000, 67.
5.34000, 65.
5.48000, 73.
5.62000, 58.
5.76000, 73.
5.90000, 322.
6.04000, 103.
6.18000, 149.
6.32000, 7441.
6.46000, 10763.
6.60000, 194.
6.74000, 97.
6.88000, 212.
7.02000, 2410.
7.16000, 743.
7.30000, 57.
7.44000, 92.
7.58000, 73.
7.72000, 82.
7.86000, 92.
8.00000, 103.
8.14000, 141.
8.28000, 96.
8.42000, 81.
8.56000, 161.
8.70000, 182.
8.84000, 105.
8.98000, 120.
9.12000, 106.
9.26000, 140.
9.40000, 107.
9.54000, 136.
9.68000, 117.
9.82000, 110.
9.96000, 103.
10.10000, 122.
10.24000, 115.
10.38000, 117.
10.52000, 180.
10.66000, 144.
10.80000, 150.
10.94000, 131.
11.08000, 124.
11.22000, 113.
11.36000, 130.
11.50000, 121.
11.64000, 124.
11.78000, 144.
11.92000, 136.
12.06000, 142.
12.20000, 155.
12.34000, 103.
12.48000, 152.
12.62000, 191.
12.76000, 195.
12.90000, 173.
13.04000, 145.
13.18000, 150.
13.32000, 216.
13.46000, 219.
13.60000, 137.
13.74000, 131.
13.88000, 131.
14.02000, 361.
14.16000, 503.
14.30000, 195.
14.44000, 160.
14.58000, 124.
14.72000, 154.
14.86000, 156.
15.00000, 148.
15.14000, 133.
15.28000, 135.
15.42000, 142.
15.56000, 168.
15.70000, 281.
15.84000, 260.
15.98000, 135.
16.12000, 140.
16.26000, 143.
16.40000, 144.
16.54000, 165.
16.68000, 160.
16.82000, 129.
16.96000, 153.
17.10000, 142.
17.24000, 169.
17.38000, 167.
17.52000, 192.
17.66000, 186.
17.80000, 157.
17.94000, 189.
18.08000, 207.
18.22000, 291.
18.36000, 343.
18.50000, 532.
18.64000, 693.
18.78000, 845.
18.92000, 715.
19.06000, 575.
19.20000, 349.
19.34000, 271.
19.48000, 224.
19.62000, 174.
19.76000, 158.
19.90000, 184.
20.04000, 408.
20.18000, 507.
20.32000, 247.
20.46000, 136.
20.60000, 153.
20.74000, 182.
20.88000, 227.
21.02000, 206.
21.16000, 204.
21.30000, 165.
21.44000, 144.
21.58000, 125.
21.72000, 116.
21.86000, 86.
22.00000, 84.
22.14000, 79.
22.28000, 78.
22.42000, 65.
22.56000, 102.
22.70000, 139.
22.84000, 99.
22.98000, 65.
23.12000, 82.
23.26000, 69.
23.40000, 41.
23.54000, 57.
23.68000, 63.
23.82000, 59.
23.96000, 49.
24.10000, 55.
24.24000, 66.
24.38000, 61.
24.52000, 64.
24.66000, 68.
24.80000, 70.
24.94000, 57.
25.08000, 53.
25.22000, 80.
25.36000, 57.
25.50000, 58.
25.64000, 59.
25.78000, 43.
25.92000, 66.
26.06000, 38.
26.20000, 48.
26.34000, 47.
26.48000, 59.
26.62000, 40.
26.76000, 44.
26.90000, 56.
27.04000, 38.
27.18000, 52.
27.32000, 45.
27.46000, 53.
27.60000, 44.
27.74000, 48.
27.88000, 43.
28.02000, 35.
28.16000, 46.
28.30000, 45.
28.44000, 34.
28.58000, 26.
28.72000, 38.
28.86000, 34.
29.00000, 34.
29.14000, 45.
29.28000, 26.
29.42000, 24.
29.56000, 29.
29.70000, 31.
29.84000, 21.
29.98000, 35.
30.12000, 30.
30.26000, 27.
30.40000, 34.
30.54000, 34.
30.68000, 38.
30.82000, 30.
30.96000, 31.
31.10000, 30.
31.24000, 28.
31.38000, 31.
31.52000, 23.
31.66000, 25.
31.80000, 35.
31.94000, 26.
32.08000, 27.
32.22000, 38.
32.36000, 25.
32.50000, 20.
32.64000, 32.
32.78000, 26.
32.92000, 18.
33.06000, 22.
33.20000, 26.
33.34000, 17.
33.48000, 18.
33.62000, 17.
33.76000, 16.
33.90000, 20.
34.04000, 15.
34.18000, 16.
34.32000, 16.
34.46000, 25.
34.60000, 19.
34.74000, 20.
34.88000, 11.
35.02000, 16.
35.16000, 18.
35.30000, 22.
35.44000, 14.
35.58000, 12.
35.72000, 15.
35.86000, 15.
36.00000, 14.
36.14000, 15.
36.28000, 14.
36.42000, 13.
36.56000, 5.
36.70000, 11.
36.84000, 15.
36.98000, 10.
37.12000, 14.
37.26000, 14.
37.40000, 9.
37.54000, 13.
37.68000, 12.
37.82000, 10.
37.96000, 7.
38.10000, 8.
38.24000, 5.
38.38000, 7.
38.52000, 13.
38.66000, 4.
38.80000, 4.
38.94000, 7.
39.08000, 5.
39.22000, 8.
39.36000, 5.
39.50000, 5.
39.64000, 2.
39.78000, 5.
39.92000, 11.
40.06000, 4.
40.20000, 7.
40.34000, 5.
40.48000, 4.
40.55000, 0.
#ENDOFDATA   :