File: sample_data/data/Spectrum value from standard/stds 2/Spectrum 19, STDS 2.txt
#FORMAT      : EMSA/MAS Spectral Data File
#VERSION     : 1.0
#TITLE       : Spectrum 19
#DATE        : 21-AUG-2025
#TIME        : 15:23
#OWNER       : XGT7200
#NPOINTS     : 4096.
#NCOLUMNS    : 1.
#XUNITS      : keV
#YUNITS      : counts
#DATATYPE    : XY
#XPERCHAN    : 0.0100000
#OFFSET      : -0.400000
#SIGNALTYPE  : EDS
#CHOFFSET    : 40.0000
#LIVETIME    : 30
#REALTIME    : 39.4803
#BEAMKV      : 50.0000
#PROBECUR    : 680000.
#MAGCAM      : 100.000
#XTILTSTGE   : 0.0
#AZIMANGLE   : 0.0
#ELEVANGLE   : 45.0
#XPOSITION mm: 0.0000
#YPOSITION mm: 0.0000
#ZPOSITION mm: 0.0000
##OXINSTPT   : 4
##OXINSTSTROB: 72.12
#SPECTRUM    : Spectral Data Starts Here
-0.40000, 0.
-0.26000, 0.
-0.12000, 0.
0.02000, 0.
0.16000, 0.
0.30000, 0.
0.44000, 41.
0.58000, 36.
0.72000, 33.
0.86000, 43.
1.00000, 62.
1.14000, 33.
1.28000, 105.
1.42000, 223.
1.56000, 296.
1.70000, 3068.
1.84000, 748.
1.98000, 98.
2.12000, 31.
2.26000, 54.
2.40000, 43.
2.54000, 38.
2.68000, 445.
2.82000, 267.
2.96000, 78.
3.10000, 38.
3.24000, 230.
3.38000, 395.
3.52000, 96.
3.66000, 1790.
3.80000, 275.
3.94000, 139.
4.08000, 168.
4.22000, 24.
4.36000, 52.
4.50000, 521.
4.64000, 126.
4.78000, 69.
4.92000, 157.
5.06000, 69.
5.20000, 53.
5.34000, 79.
5.48000, 63.
5.62000, 52.
5.76000, 65.
5.90000, 350.
6.04000, 93.
6.18000, 125.
6.32000, 7226.
6.46000, 10527.
6.60000, 164.
6.74000, 122.
6.88000, 215.
7.02000, 2347.
7.16000, 714.
7.30000, 76.
7.44000, 87.
7.58000, 69.
7.72000, 73.
7.86000, 84.
8.00000, 114.
8.14000, 130.
8.28000, 95.
8.42000, 88.
8.56000, 173.
8.70000, 179.
8.84000, 113.
8.98000, 95.
9.12000, 113.
9.26000, 105.
9.40000, 101.
9.54000, 138.
9.68000, 118.
9.82000, 105.
9.96000, 96.
10.10000, 128.
10.24000, 115.
10.38000, 139.
10.52000, 164.
10.66000, 112.
10.80000, 118.
10.94000, 123.
11.08000, 120.
11.22000, 126.
11.36000, 122.
11.50000, 122.
11.64000, 127.
11.78000, 115.
11.92000, 133.
12.06000, 104.
12.20000, 144.
12.34000, 116.
12.48000, 131.
12.62000, 149.
12.76000, 180.
12.90000, 152.
13.04000, 151.
13.18000, 153.
13.32000, 222.
13.46000, 217.
13.60000, 176.
13.74000, 130.
13.88000, 167.
14.02000, 328.
14.16000, 524.
14.30000, 206.
14.44000, 129.
14.58000, 111.
14.72000, 140.
14.86000, 174.
15.00000, 163.
15.14000, 129.
15.28000, 132.
15.42000, 129.
15.56000, 180.
15.70000, 337.
15.84000, 289.
15.98000, 164.
16.12000, 129.
16.26000, 135.
16.40000, 128.
16.54000, 179.
16.68000, 156.
16.82000, 145.
16.96000, 149.
17.10000, 143.
17.24000, 154.
17.38000, 159.
17.52000, 183.
17.66000, 207.
17.80000, 155.
17.94000, 186.
18.08000, 225.
18.22000, 253.
18.36000, 355.
18.50000, 481.
18.64000, 699.
18.78000, 820.
18.92000, 699.
19.06000, 583.
19.20000, 366.
19.34000, 252.
19.48000, 209.
19.62000, 173.
19.76000, 160.
19.90000, 208.
20.04000, 421.
20.18000, 513.
20.32000, 246.
20.46000, 139.
20.60000, 163.
20.74000, 194.
20.88000, 221.
21.02000, 232.
21.16000, 185.
21.30000, 161.
21.44000, 147.
21.58000, 132.
21.72000, 98.
21.86000, 70.
22.00000, 97.
22.14000, 87.
22.28000, 77.
22.42000, 73.
22.56000, 107.
22.70000, 136.
22.84000, 88.
22.98000, 86.
23.12000, 90.
23.26000, 53.
23.40000, 54.
23.54000, 59.
23.68000, 59.
23.82000, 60.
23.96000, 53.
24.10000, 67.
24.24000, 59.
24.38000, 51.
24.52000, 71.
24.66000, 55.
24.80000, 46.
24.94000, 65.
25.08000, 64.
25.22000, 63.
25.36000, 59.
25.50000, 54.
25.64000, 45.
25.78000, 62.
25.92000, 53.
26.06000, 63.
26.20000, 42.
26.34000, 54.
26.48000, 47.
26.62000, 41.
26.76000, 44.
26.90000, 62.
27.04000, 45.
27.18000, 45.
27.32000, 63.
27.46000, 40.
27.60000, 46.
27.74000, 39.
27.88000, 33.
28.02000, 42.
28.16000, 43.
28.30000, 36.
28.44000, 36.
28.58000, 45.
28.72000, 37.
28.86000, 35.
29.00000, 50.
29.14000, 28.
29.28000, 44.
29.42000, 38.
29.56000, 31.
29.70000, 33.
29.84000, 29.
29.98000, 33.
30.12000, 25.
30.26000, 29.
30.40000, 37.
30.54000, 29.
30.68000, 34.
30.82000, 39.
30.96000, 30.
31.10000, 27.
31.24000, 33.
31.38000, 23.
31.52000, 23.
31.66000, 18.
31.80000, 31.
31.94000, 21.
32.08000, 22.
32.22000, 36.
32.36000, 16.
32.50000, 23.
32.64000, 20.
32.78000, 20.
32.92000, 25.
33.06000, 16.
33.20000, 25.
33.34000, 17.
33.48000, 24.
33.62000, 15.
33.76000, 17.
33.90000, 24.
34.04000, 12.
34.18000, 14.
34.32000, 18.
34.46000, 25.
34.60000, 18.
34.74000, 19.
34.88000, 18.
35.02000, 25.
35.16000, 13.
35.30000, 12.
35.44000, 14.
35.58000, 18.
35.72000, 14.
35.86000, 13.
36.00000, 13.
36.14000, 14.
36.28000, 16.
36.42000, 17.
36.56000, 4.
36.70000, 12.
36.84000, 10.
36.98000, 11.
37.12000, 10.
37.26000, 12.
37.40000, 7.
37.54000, 8.
37.68000, 8.
37.82000, 10.
37.96000, 8.
38.10000, 9.
38.24000, 7.
38.38000, 8.
38.52000, 8.
38.66000, 8.
38.80000, 10.
38.94000, 3.
39.08000, 7.
39.22000, 6.
39.36000, 7.
39.50000, 4.
39.64000, 7.
39.78000, 4.
39.92000, 2.
40.06000, 4.
40.20000, 3.
40.34000, 3.
40.48000, 7.
40.55000, 0.
#ENDOFDATA   :