File: sample_data/data/Spectrum value from standard/stds 2/Spectrum 22.txt
#FORMAT      : EMSA/MAS Spectral Data File
#VERSION     : 1.0
#TITLE       : Spectrum 22
#DATE        : 21-AUG-2025
#TIME        : 15:26
#OWNER       : XGT7200
#NPOINTS     : 4096.
#NCOLUMNS    : 1.
#XUNITS      : keV
#YUNITS      : counts
#DATATYPE    : XY
#XPERCHAN    : 0.0100000
#OFFSET      : -0.400000
#SIGNALTYPE  : EDS
#CHOFFSET    : 40.0000
#LIVETIME    : 30
#REALTIME    : 39.7843
#BEAMKV      : 50.0000
#PROBECUR    : 692000.
#MAGCAM      : 100.000
#XTILTSTGE   : 0.0
#AZIMANGLE   : 0.0
#ELEVANGLE   : 45.0
#XPOSITION mm: 0.0000
#YPOSITION mm: 0.0000
#ZPOSITION mm: 0.0000
##OXINSTPT   : 4
##OXINSTSTROB: 71.84
#SPECTRUM    : Spectral Data Starts Here
-0.40000, 0.
-0.26000, 0.
-0.12000, 0.
0.02000, 0.
0.16000, 0.
0.30000, 0.
0.44000, 37.
0.58000, 47.
0.72000, 42.
0.86000, 40.
1.00000, 39.
1.14000, 39.
1.28000, 90.
1.42000, 235.
1.56000, 280.
1.70000, 3132.
1.84000, 673.
1.98000, 83.
2.12000, 29.
2.26000, 45.
2.40000, 41.
2.54000, 33.
2.68000, 456.
2.82000, 228.
2.96000, 85.
3.10000, 30.
3.24000, 241.
3.38000, 416.
3.52000, 97.
3.66000, 1418.
3.80000, 218.
3.94000, 113.
4.08000, 162.
4.22000, 30.
4.36000, 41.
4.50000, 601.
4.64000, 124.
4.78000, 56.
4.92000, 136.
5.06000, 61.
5.20000, 65.
5.34000, 77.
5.48000, 76.
5.62000, 54.
5.76000, 78.
5.90000, 309.
6.04000, 89.
6.18000, 133.
6.32000, 7530.
6.46000, 10749.
6.60000, 206.
6.74000, 116.
6.88000, 240.
7.02000, 2418.
7.16000, 787.
7.30000, 57.
7.44000, 95.
7.58000, 80.
7.72000, 82.
7.86000, 80.
8.00000, 128.
8.14000, 138.
8.28000, 98.
8.42000, 102.
8.56000, 147.
8.70000, 189.
8.84000, 111.
8.98000, 97.
9.12000, 111.
9.26000, 142.
9.40000, 99.
9.54000, 137.
9.68000, 124.
9.82000, 101.
9.96000, 90.
10.10000, 113.
10.24000, 114.
10.38000, 157.
10.52000, 191.
10.66000, 152.
10.80000, 132.
10.94000, 163.
11.08000, 127.
11.22000, 141.
11.36000, 144.
11.50000, 114.
11.64000, 143.
11.78000, 150.
11.92000, 117.
12.06000, 143.
12.20000, 140.
12.34000, 132.
12.48000, 135.
12.62000, 170.
12.76000, 174.
12.90000, 160.
13.04000, 154.
13.18000, 162.
13.32000, 259.
13.46000, 203.
13.60000, 158.
13.74000, 135.
13.88000, 164.
14.02000, 338.
14.16000, 531.
14.30000, 209.
14.44000, 142.
14.58000, 159.
14.72000, 148.
14.86000, 193.
15.00000, 198.
15.14000, 156.
15.28000, 163.
15.42000, 124.
15.56000, 189.
15.70000, 398.
15.84000, 339.
15.98000, 153.
16.12000, 127.
16.26000, 130.
16.40000, 154.
16.54000, 164.
16.68000, 177.
16.82000, 127.
16.96000, 152.
17.10000, 133.
17.24000, 158.
17.38000, 157.
17.52000, 163.
17.66000, 207.
17.80000, 180.
17.94000, 214.
18.08000, 245.
18.22000, 287.
18.36000, 342.
18.50000, 540.
18.64000, 736.
18.78000, 857.
18.92000, 782.
19.06000, 591.
19.20000, 377.
19.34000, 262.
19.48000, 220.
19.62000, 184.
19.76000, 161.
19.90000, 208.
20.04000, 453.
20.18000, 500.
20.32000, 243.
20.46000, 132.
20.60000, 180.
20.74000, 188.
20.88000, 226.
21.02000, 239.
21.16000, 222.
21.30000, 177.
21.44000, 144.
21.58000, 133.
21.72000, 106.
21.86000, 92.
22.00000, 93.
22.14000, 77.
22.28000, 88.
22.42000, 97.
22.56000, 98.
22.70000, 146.
22.84000, 67.
22.98000, 80.
23.12000, 72.
23.26000, 67.
23.40000, 63.
23.54000, 60.
23.68000, 53.
23.82000, 58.
23.96000, 52.
24.10000, 52.
24.24000, 59.
24.38000, 57.
24.52000, 74.
24.66000, 55.
24.80000, 53.
24.94000, 62.
25.08000, 61.
25.22000, 76.
25.36000, 59.
25.50000, 67.
25.64000, 55.
25.78000, 61.
25.92000, 59.
26.06000, 59.
26.20000, 52.
26.34000, 63.
26.48000, 41.
26.62000, 44.
26.76000, 50.
26.90000, 53.
27.04000, 44.
27.18000, 39.
27.32000, 59.
27.46000, 54.
27.60000, 31.
27.74000, 39.
27.88000, 21.
28.02000, 52.
28.16000, 46.
28.30000, 36.
28.44000, 37.
28.58000, 47.
28.72000, 40.
28.86000, 41.
29.00000, 28.
29.14000, 48.
29.28000, 37.
29.42000, 34.
29.56000, 34.
29.70000, 27.
29.84000, 26.
29.98000, 22.
30.12000, 37.
30.26000, 25.
30.40000, 32.
30.54000, 34.
30.68000, 32.
30.82000, 34.
30.96000, 32.
31.10000, 24.
31.24000, 30.
31.38000, 25.
31.52000, 25.
31.66000, 36.
31.80000, 40.
31.94000, 28.
32.08000, 32.
32.22000, 26.
32.36000, 25.
32.50000, 27.
32.64000, 27.
32.78000, 30.
32.92000, 28.
33.06000, 17.
33.20000, 25.
33.34000, 19.
33.48000, 15.
33.62000, 22.
33.76000, 18.
33.90000, 17.
34.04000, 23.
34.18000, 21.
34.32000, 18.
34.46000, 20.
34.60000, 16.
34.74000, 17.
34.88000, 14.
35.02000, 21.
35.16000, 16.
35.30000, 15.
35.44000, 13.
35.58000, 11.
35.72000, 15.
35.86000, 13.
36.00000, 17.
36.14000, 11.
36.28000, 14.
36.42000, 20.
36.56000, 13.
36.70000, 16.
36.84000, 8.
36.98000, 11.
37.12000, 12.
37.26000, 11.
37.40000, 10.
37.54000, 4.
37.68000, 8.
37.82000, 10.
37.96000, 3.
38.10000, 11.
38.24000, 7.
38.38000, 7.
38.52000, 8.
38.66000, 3.
38.80000, 5.
38.94000, 11.
39.08000, 5.
39.22000, 9.
39.36000, 2.
39.50000, 10.
39.64000, 11.
39.78000, 5.
39.92000, 4.
40.06000, 5.
40.20000, 6.
40.34000, 7.
40.48000, 3.
40.55000, 0.
#ENDOFDATA   :