File: sample_data/data/Spectrum value from standard/stds 2/Spectrum 21.txt
#FORMAT      : EMSA/MAS Spectral Data File
#VERSION     : 1.0
#TITLE       : Spectrum 21
#DATE        : 21-AUG-2025
#TIME        : 15:25
#OWNER       : XGT7200
#NPOINTS     : 4096.
#NCOLUMNS    : 1.
#XUNITS      : keV
#YUNITS      : counts
#DATATYPE    : XY
#XPERCHAN    : 0.0100000
#OFFSET      : -0.400000
#SIGNALTYPE  : EDS
#CHOFFSET    : 40.0000
#LIVETIME    : 30
#REALTIME    : 39.6462
#BEAMKV      : 50.0000
#PROBECUR    : 689000.
#MAGCAM      : 100.000
#XTILTSTGE   : 0.0
#AZIMANGLE   : 0.0
#ELEVANGLE   : 45.0
#XPOSITION mm: 0.0000
#YPOSITION mm: 0.0000
#ZPOSITION mm: 0.0000
##OXINSTPT   : 4
##OXINSTSTROB: 72.04
#SPECTRUM    : Spectral Data Starts Here
-0.40000, 0.
-0.26000, 0.
-0.12000, 0.
0.02000, 0.
0.16000, 0.
0.30000, 0.
0.44000, 46.
0.58000, 40.
0.72000, 35.
0.86000, 36.
1.00000, 46.
1.14000, 28.
1.28000, 94.
1.42000, 217.
1.56000, 299.
1.70000, 3095.
1.84000, 682.
1.98000, 84.
2.12000, 32.
2.26000, 67.
2.40000, 44.
2.54000, 41.
2.68000, 438.
2.82000, 229.
2.96000, 79.
3.10000, 32.
3.24000, 234.
3.38000, 373.
3.52000, 86.
3.66000, 1541.
3.80000, 218.
3.94000, 108.
4.08000, 171.
4.22000, 36.
4.36000, 41.
4.50000, 557.
4.64000, 121.
4.78000, 67.
4.92000, 156.
5.06000, 63.
5.20000, 67.
5.34000, 72.
5.48000, 64.
5.62000, 49.
5.76000, 71.
5.90000, 337.
6.04000, 83.
6.18000, 164.
6.32000, 7766.
6.46000, 10763.
6.60000, 212.
6.74000, 101.
6.88000, 204.
7.02000, 2494.
7.16000, 759.
7.30000, 69.
7.44000, 77.
7.58000, 76.
7.72000, 82.
7.86000, 72.
8.00000, 120.
8.14000, 136.
8.28000, 104.
8.42000, 104.
8.56000, 207.
8.70000, 180.
8.84000, 104.
8.98000, 99.
9.12000, 106.
9.26000, 116.
9.40000, 89.
9.54000, 115.
9.68000, 124.
9.82000, 127.
9.96000, 125.
10.10000, 122.
10.24000, 113.
10.38000, 127.
10.52000, 173.
10.66000, 128.
10.80000, 135.
10.94000, 119.
11.08000, 118.
11.22000, 121.
11.36000, 121.
11.50000, 126.
11.64000, 138.
11.78000, 145.
11.92000, 145.
12.06000, 121.
12.20000, 136.
12.34000, 120.
12.48000, 127.
12.62000, 170.
12.76000, 168.
12.90000, 152.
13.04000, 120.
13.18000, 151.
13.32000, 228.
13.46000, 206.
13.60000, 160.
13.74000, 135.
13.88000, 165.
14.02000, 335.
14.16000, 526.
14.30000, 211.
14.44000, 133.
14.58000, 135.
14.72000, 144.
14.86000, 173.
15.00000, 179.
15.14000, 133.
15.28000, 144.
15.42000, 147.
15.56000, 171.
15.70000, 278.
15.84000, 253.
15.98000, 135.
16.12000, 140.
16.26000, 133.
16.40000, 120.
16.54000, 144.
16.68000, 142.
16.82000, 165.
16.96000, 123.
17.10000, 124.
17.24000, 149.
17.38000, 163.
17.52000, 173.
17.66000, 188.
17.80000, 191.
17.94000, 215.
18.08000, 194.
18.22000, 238.
18.36000, 360.
18.50000, 540.
18.64000, 728.
18.78000, 802.
18.92000, 718.
19.06000, 544.
19.20000, 360.
19.34000, 255.
19.48000, 205.
19.62000, 173.
19.76000, 146.
19.90000, 217.
20.04000, 436.
20.18000, 540.
20.32000, 276.
20.46000, 162.
20.60000, 162.
20.74000, 185.
20.88000, 196.
21.02000, 223.
21.16000, 213.
21.30000, 158.
21.44000, 128.
21.58000, 113.
21.72000, 116.
21.86000, 94.
22.00000, 83.
22.14000, 79.
22.28000, 65.
22.42000, 71.
22.56000, 113.
22.70000, 126.
22.84000, 103.
22.98000, 65.
23.12000, 65.
23.26000, 62.
23.40000, 65.
23.54000, 58.
23.68000, 68.
23.82000, 59.
23.96000, 55.
24.10000, 54.
24.24000, 68.
24.38000, 57.
24.52000, 60.
24.66000, 60.
24.80000, 52.
24.94000, 61.
25.08000, 66.
25.22000, 65.
25.36000, 65.
25.50000, 47.
25.64000, 63.
25.78000, 59.
25.92000, 44.
26.06000, 49.
26.20000, 44.
26.34000, 63.
26.48000, 57.
26.62000, 52.
26.76000, 39.
26.90000, 42.
27.04000, 44.
27.18000, 49.
27.32000, 40.
27.46000, 41.
27.60000, 49.
27.74000, 41.
27.88000, 42.
28.02000, 31.
28.16000, 50.
28.30000, 45.
28.44000, 46.
28.58000, 33.
28.72000, 39.
28.86000, 41.
29.00000, 37.
29.14000, 32.
29.28000, 30.
29.42000, 29.
29.56000, 38.
29.70000, 40.
29.84000, 26.
29.98000, 34.
30.12000, 38.
30.26000, 26.
30.40000, 29.
30.54000, 24.
30.68000, 32.
30.82000, 30.
30.96000, 30.
31.10000, 26.
31.24000, 30.
31.38000, 34.
31.52000, 35.
31.66000, 26.
31.80000, 34.
31.94000, 32.
32.08000, 24.
32.22000, 21.
32.36000, 21.
32.50000, 26.
32.64000, 22.
32.78000, 28.
32.92000, 29.
33.06000, 17.
33.20000, 20.
33.34000, 15.
33.48000, 15.
33.62000, 18.
33.76000, 22.
33.90000, 11.
34.04000, 19.
34.18000, 17.
34.32000, 18.
34.46000, 19.
34.60000, 16.
34.74000, 13.
34.88000, 18.
35.02000, 15.
35.16000, 22.
35.30000, 10.
35.44000, 16.
35.58000, 10.
35.72000, 14.
35.86000, 12.
36.00000, 15.
36.14000, 15.
36.28000, 15.
36.42000, 17.
36.56000, 15.
36.70000, 12.
36.84000, 10.
36.98000, 11.
37.12000, 8.
37.26000, 13.
37.40000, 8.
37.54000, 10.
37.68000, 9.
37.82000, 9.
37.96000, 9.
38.10000, 6.
38.24000, 9.
38.38000, 10.
38.52000, 9.
38.66000, 9.
38.80000, 7.
38.94000, 8.
39.08000, 9.
39.22000, 6.
39.36000, 12.
39.50000, 8.
39.64000, 4.
39.78000, 5.
39.92000, 4.
40.06000, 1.
40.20000, 4.
40.34000, 6.
40.48000, 8.
40.55000, 0.
#ENDOFDATA   :