File: sample_data/data/Spectrum value from standard/stds 2/Spectrum 23.txt
#FORMAT      : EMSA/MAS Spectral Data File
#VERSION     : 1.0
#TITLE       : Spectrum 23
#DATE        : 21-AUG-2025
#TIME        : 15:27
#OWNER       : XGT7200
#NPOINTS     : 4096.
#NCOLUMNS    : 1.
#XUNITS      : keV
#YUNITS      : counts
#DATATYPE    : XY
#XPERCHAN    : 0.0100000
#OFFSET      : -0.400000
#SIGNALTYPE  : EDS
#CHOFFSET    : 40.0000
#LIVETIME    : 30
#REALTIME    : 39.572
#BEAMKV      : 50.0000
#PROBECUR    : 682000.
#MAGCAM      : 100.000
#XTILTSTGE   : 0.0
#AZIMANGLE   : 0.0
#ELEVANGLE   : 45.0
#XPOSITION mm: 0.0000
#YPOSITION mm: 0.0000
#ZPOSITION mm: 0.0000
##OXINSTPT   : 4
##OXINSTSTROB: 71.95
#SPECTRUM    : Spectral Data Starts Here
-0.40000, 0.
-0.26000, 0.
-0.12000, 0.
0.02000, 0.
0.16000, 0.
0.30000, 1.
0.44000, 47.
0.58000, 29.
0.72000, 45.
0.86000, 31.
1.00000, 49.
1.14000, 36.
1.28000, 93.
1.42000, 228.
1.56000, 286.
1.70000, 2964.
1.84000, 687.
1.98000, 99.
2.12000, 41.
2.26000, 36.
2.40000, 43.
2.54000, 58.
2.68000, 439.
2.82000, 220.
2.96000, 83.
3.10000, 37.
3.24000, 263.
3.38000, 356.
3.52000, 69.
3.66000, 1456.
3.80000, 225.
3.94000, 131.
4.08000, 171.
4.22000, 23.
4.36000, 48.
4.50000, 583.
4.64000, 144.
4.78000, 59.
4.92000, 137.
5.06000, 59.
5.20000, 54.
5.34000, 59.
5.48000, 69.
5.62000, 56.
5.76000, 84.
5.90000, 375.
6.04000, 80.
6.18000, 152.
6.32000, 7584.
6.46000, 10648.
6.60000, 176.
6.74000, 127.
6.88000, 223.
7.02000, 2413.
7.16000, 782.
7.30000, 62.
7.44000, 83.
7.58000, 89.
7.72000, 72.
7.86000, 94.
8.00000, 124.
8.14000, 134.
8.28000, 107.
8.42000, 96.
8.56000, 188.
8.70000, 174.
8.84000, 113.
8.98000, 99.
9.12000, 104.
9.26000, 124.
9.40000, 101.
9.54000, 130.
9.68000, 116.
9.82000, 116.
9.96000, 125.
10.10000, 116.
10.24000, 101.
10.38000, 121.
10.52000, 168.
10.66000, 159.
10.80000, 133.
10.94000, 129.
11.08000, 118.
11.22000, 107.
11.36000, 116.
11.50000, 119.
11.64000, 140.
11.78000, 126.
11.92000, 142.
12.06000, 135.
12.20000, 110.
12.34000, 157.
12.48000, 140.
12.62000, 133.
12.76000, 199.
12.90000, 173.
13.04000, 130.
13.18000, 143.
13.32000, 223.
13.46000, 197.
13.60000, 162.
13.74000, 149.
13.88000, 160.
14.02000, 367.
14.16000, 469.
14.30000, 196.
14.44000, 125.
14.58000, 129.
14.72000, 152.
14.86000, 171.
15.00000, 151.
15.14000, 127.
15.28000, 148.
15.42000, 119.
15.56000, 168.
15.70000, 353.
15.84000, 301.
15.98000, 178.
16.12000, 150.
16.26000, 128.
16.40000, 121.
16.54000, 164.
16.68000, 138.
16.82000, 149.
16.96000, 143.
17.10000, 129.
17.24000, 166.
17.38000, 163.
17.52000, 179.
17.66000, 169.
17.80000, 178.
17.94000, 207.
18.08000, 212.
18.22000, 288.
18.36000, 355.
18.50000, 495.
18.64000, 719.
18.78000, 802.
18.92000, 749.
19.06000, 564.
19.20000, 379.
19.34000, 232.
19.48000, 219.
19.62000, 177.
19.76000, 143.
19.90000, 209.
20.04000, 435.
20.18000, 489.
20.32000, 278.
20.46000, 158.
20.60000, 156.
20.74000, 194.
20.88000, 193.
21.02000, 229.
21.16000, 179.
21.30000, 160.
21.44000, 149.
21.58000, 102.
21.72000, 107.
21.86000, 96.
22.00000, 98.
22.14000, 83.
22.28000, 69.
22.42000, 72.
22.56000, 110.
22.70000, 124.
22.84000, 80.
22.98000, 62.
23.12000, 72.
23.26000, 77.
23.40000, 54.
23.54000, 59.
23.68000, 64.
23.82000, 74.
23.96000, 56.
24.10000, 55.
24.24000, 67.
24.38000, 61.
24.52000, 69.
24.66000, 64.
24.80000, 55.
24.94000, 60.
25.08000, 84.
25.22000, 71.
25.36000, 64.
25.50000, 58.
25.64000, 58.
25.78000, 62.
25.92000, 54.
26.06000, 56.
26.20000, 51.
26.34000, 53.
26.48000, 46.
26.62000, 45.
26.76000, 41.
26.90000, 63.
27.04000, 41.
27.18000, 48.
27.32000, 58.
27.46000, 43.
27.60000, 44.
27.74000, 33.
27.88000, 48.
28.02000, 41.
28.16000, 34.
28.30000, 35.
28.44000, 36.
28.58000, 43.
28.72000, 35.
28.86000, 40.
29.00000, 35.
29.14000, 43.
29.28000, 37.
29.42000, 26.
29.56000, 35.
29.70000, 35.
29.84000, 34.
29.98000, 24.
30.12000, 36.
30.26000, 32.
30.40000, 37.
30.54000, 33.
30.68000, 35.
30.82000, 33.
30.96000, 27.
31.10000, 30.
31.24000, 28.
31.38000, 34.
31.52000, 43.
31.66000, 33.
31.80000, 29.
31.94000, 31.
32.08000, 27.
32.22000, 37.
32.36000, 27.
32.50000, 20.
32.64000, 25.
32.78000, 18.
32.92000, 19.
33.06000, 19.
33.20000, 21.
33.34000, 20.
33.48000, 18.
33.62000, 23.
33.76000, 19.
33.90000, 20.
34.04000, 14.
34.18000, 17.
34.32000, 17.
34.46000, 16.
34.60000, 23.
34.74000, 12.
34.88000, 15.
35.02000, 19.
35.16000, 14.
35.30000, 15.
35.44000, 16.
35.58000, 18.
35.72000, 15.
35.86000, 9.
36.00000, 13.
36.14000, 4.
36.28000, 15.
36.42000, 17.
36.56000, 10.
36.70000, 12.
36.84000, 10.
36.98000, 12.
37.12000, 9.
37.26000, 9.
37.40000, 11.
37.54000, 7.
37.68000, 11.
37.82000, 11.
37.96000, 9.
38.10000, 5.
38.24000, 6.
38.38000, 6.
38.52000, 5.
38.66000, 4.
38.80000, 9.
38.94000, 10.
39.08000, 5.
39.22000, 11.
39.36000, 6.
39.50000, 3.
39.64000, 10.
39.78000, 5.
39.92000, 5.
40.06000, 2.
40.20000, 2.
40.34000, 6.
40.48000, 9.
40.55000, 0.
#ENDOFDATA   :