File: sample_data/data/Spectrum value from standard/Nist 2586/Spectrum 30.txt
#FORMAT      : EMSA/MAS Spectral Data File
#VERSION     : 1.0
#TITLE       : Spectrum 30
#DATE        : 21-AUG-2025
#TIME        : 15:34
#OWNER       : XGT7200
#NPOINTS     : 4096.
#NCOLUMNS    : 1.
#XUNITS      : keV
#YUNITS      : counts
#DATATYPE    : XY
#XPERCHAN    : 0.0100000
#OFFSET      : -0.400000
#SIGNALTYPE  : EDS
#CHOFFSET    : 40.0000
#LIVETIME    : 30
#REALTIME    : 39.8333
#BEAMKV      : 50.0000
#PROBECUR    : 680000.
#MAGCAM      : 100.000
#XTILTSTGE   : 0.0
#AZIMANGLE   : 0.0
#ELEVANGLE   : 45.0
#XPOSITION mm: 0.0000
#YPOSITION mm: 0.0000
#ZPOSITION mm: 0.0000
##OXINSTPT   : 4
##OXINSTSTROB: 71.88
#SPECTRUM    : Spectral Data Starts Here
-0.40000, 0.
-0.26000, 0.
-0.12000, 0.
0.02000, 0.
0.16000, 0.
0.30000, 0.
0.44000, 28.
0.58000, 32.
0.72000, 31.
0.86000, 43.
1.00000, 45.
1.14000, 45.
1.28000, 83.
1.42000, 209.
1.56000, 282.
1.70000, 3548.
1.84000, 777.
1.98000, 73.
2.12000, 28.
2.26000, 50.
2.40000, 55.
2.54000, 51.
2.68000, 456.
2.82000, 279.
2.96000, 80.
3.10000, 31.
3.24000, 137.
3.38000, 227.
3.52000, 60.
3.66000, 1093.
3.80000, 202.
3.94000, 109.
4.08000, 126.
4.22000, 34.
4.36000, 47.
4.50000, 707.
4.64000, 150.
4.78000, 77.
4.92000, 181.
5.06000, 50.
5.20000, 60.
5.34000, 93.
5.48000, 89.
5.62000, 53.
5.76000, 65.
5.90000, 329.
6.04000, 87.
6.18000, 165.
6.32000, 7375.
6.46000, 10449.
6.60000, 201.
6.74000, 109.
6.88000, 236.
7.02000, 2391.
7.16000, 771.
7.30000, 71.
7.44000, 101.
7.58000, 65.
7.72000, 73.
7.86000, 128.
8.00000, 155.
8.14000, 148.
8.28000, 89.
8.42000, 102.
8.56000, 199.
8.70000, 191.
8.84000, 121.
8.98000, 105.
9.12000, 111.
9.26000, 124.
9.40000, 110.
9.54000, 143.
9.68000, 118.
9.82000, 134.
9.96000, 130.
10.10000, 120.
10.24000, 111.
10.38000, 151.
10.52000, 269.
10.66000, 195.
10.80000, 121.
10.94000, 129.
11.08000, 133.
11.22000, 135.
11.36000, 134.
11.50000, 140.
11.64000, 126.
11.78000, 158.
11.92000, 140.
12.06000, 128.
12.20000, 122.
12.34000, 140.
12.48000, 175.
12.62000, 294.
12.76000, 253.
12.90000, 179.
13.04000, 180.
13.18000, 148.
13.32000, 201.
13.46000, 188.
13.60000, 162.
13.74000, 144.
13.88000, 119.
14.02000, 177.
14.16000, 227.
14.30000, 157.
14.44000, 139.
14.58000, 145.
14.72000, 148.
14.86000, 165.
15.00000, 171.
15.14000, 169.
15.28000, 150.
15.42000, 135.
15.56000, 228.
15.70000, 429.
15.84000, 318.
15.98000, 178.
16.12000, 153.
16.26000, 119.
16.40000, 159.
16.54000, 172.
16.68000, 159.
16.82000, 151.
16.96000, 138.
17.10000, 147.
17.24000, 171.
17.38000, 151.
17.52000, 192.
17.66000, 214.
17.80000, 184.
17.94000, 201.
18.08000, 244.
18.22000, 280.
18.36000, 365.
18.50000, 534.
18.64000, 720.
18.78000, 890.
18.92000, 772.
19.06000, 590.
19.20000, 434.
19.34000, 271.
19.48000, 207.
19.62000, 173.
19.76000, 155.
19.90000, 205.
20.04000, 432.
20.18000, 536.
20.32000, 294.
20.46000, 160.
20.60000, 161.
20.74000, 231.
20.88000, 228.
21.02000, 233.
21.16000, 240.
21.30000, 161.
21.44000, 152.
21.58000, 110.
21.72000, 98.
21.86000, 89.
22.00000, 101.
22.14000, 100.
22.28000, 75.
22.42000, 73.
22.56000, 109.
22.70000, 129.
22.84000, 106.
22.98000, 75.
23.12000, 73.
23.26000, 58.
23.40000, 57.
23.54000, 58.
23.68000, 59.
23.82000, 57.
23.96000, 64.
24.10000, 64.
24.24000, 66.
24.38000, 53.
24.52000, 58.
24.66000, 58.
24.80000, 71.
24.94000, 75.
25.08000, 63.
25.22000, 66.
25.36000, 57.
25.50000, 63.
25.64000, 71.
25.78000, 53.
25.92000, 53.
26.06000, 65.
26.20000, 54.
26.34000, 61.
26.48000, 49.
26.62000, 60.
26.76000, 59.
26.90000, 51.
27.04000, 55.
27.18000, 45.
27.32000, 53.
27.46000, 40.
27.60000, 33.
27.74000, 59.
27.88000, 58.
28.02000, 49.
28.16000, 43.
28.30000, 46.
28.44000, 34.
28.58000, 46.
28.72000, 45.
28.86000, 35.
29.00000, 25.
29.14000, 43.
29.28000, 37.
29.42000, 42.
29.56000, 36.
29.70000, 46.
29.84000, 42.
29.98000, 45.
30.12000, 28.
30.26000, 28.
30.40000, 30.
30.54000, 27.
30.68000, 27.
30.82000, 33.
30.96000, 23.
31.10000, 35.
31.24000, 30.
31.38000, 34.
31.52000, 31.
31.66000, 31.
31.80000, 37.
31.94000, 25.
32.08000, 18.
32.22000, 25.
32.36000, 36.
32.50000, 21.
32.64000, 17.
32.78000, 25.
32.92000, 21.
33.06000, 18.
33.20000, 23.
33.34000, 20.
33.48000, 14.
33.62000, 18.
33.76000, 25.
33.90000, 24.
34.04000, 19.
34.18000, 22.
34.32000, 14.
34.46000, 14.
34.60000, 13.
34.74000, 19.
34.88000, 17.
35.02000, 19.
35.16000, 16.
35.30000, 18.
35.44000, 15.
35.58000, 16.
35.72000, 14.
35.86000, 12.
36.00000, 13.
36.14000, 11.
36.28000, 13.
36.42000, 12.
36.56000, 15.
36.70000, 11.
36.84000, 7.
36.98000, 14.
37.12000, 12.
37.26000, 13.
37.40000, 13.
37.54000, 9.
37.68000, 9.
37.82000, 9.
37.96000, 15.
38.10000, 6.
38.24000, 5.
38.38000, 1.
38.52000, 12.
38.66000, 5.
38.80000, 13.
38.94000, 3.
39.08000, 2.
39.22000, 5.
39.36000, 5.
39.50000, 3.
39.64000, 8.
39.78000, 5.
39.92000, 3.
40.06000, 7.
40.20000, 7.
40.34000, 7.
40.48000, 5.
40.55000, 0.
#ENDOFDATA   :