File: sample_data/data/Spectrum value from standard/Nist 2586/Spectrum 26.txt
#FORMAT      : EMSA/MAS Spectral Data File
#VERSION     : 1.0
#TITLE       : Spectrum 26
#DATE        : 21-AUG-2025
#TIME        : 15:30
#OWNER       : XGT7200
#NPOINTS     : 4096.
#NCOLUMNS    : 1.
#XUNITS      : keV
#YUNITS      : counts
#DATATYPE    : XY
#XPERCHAN    : 0.0100000
#OFFSET      : -0.400000
#SIGNALTYPE  : EDS
#CHOFFSET    : 40.0000
#LIVETIME    : 30
#REALTIME    : 39.6994
#BEAMKV      : 50.0000
#PROBECUR    : 673000.
#MAGCAM      : 100.000
#XTILTSTGE   : 0.0
#AZIMANGLE   : 0.0
#ELEVANGLE   : 45.0
#XPOSITION mm: 0.0000
#YPOSITION mm: 0.0000
#ZPOSITION mm: 0.0000
##OXINSTPT   : 4
##OXINSTSTROB: 71.95
#SPECTRUM    : Spectral Data Starts Here
-0.40000, 0.
-0.26000, 0.
-0.12000, 0.
0.02000, 0.
0.16000, 0.
0.30000, 0.
0.44000, 45.
0.58000, 46.
0.72000, 35.
0.86000, 40.
1.00000, 38.
1.14000, 36.
1.28000, 94.
1.42000, 195.
1.56000, 251.
1.70000, 3582.
1.84000, 803.
1.98000, 76.
2.12000, 26.
2.26000, 45.
2.40000, 44.
2.54000, 57.
2.68000, 471.
2.82000, 277.
2.96000, 84.
3.10000, 34.
3.24000, 147.
3.38000, 223.
3.52000, 56.
3.66000, 1149.
3.80000, 190.
3.94000, 81.
4.08000, 118.
4.22000, 33.
4.36000, 53.
4.50000, 741.
4.64000, 142.
4.78000, 60.
4.92000, 165.
5.06000, 60.
5.20000, 43.
5.34000, 94.
5.48000, 100.
5.62000, 60.
5.76000, 77.
5.90000, 325.
6.04000, 100.
6.18000, 166.
6.32000, 7306.
6.46000, 10514.
6.60000, 175.
6.74000, 101.
6.88000, 223.
7.02000, 2490.
7.16000, 773.
7.30000, 72.
7.44000, 93.
7.58000, 81.
7.72000, 67.
7.86000, 103.
8.00000, 150.
8.14000, 156.
8.28000, 109.
8.42000, 118.
8.56000, 184.
8.70000, 226.
8.84000, 120.
8.98000, 114.
9.12000, 112.
9.26000, 133.
9.40000, 113.
9.54000, 124.
9.68000, 147.
9.82000, 104.
9.96000, 121.
10.10000, 127.
10.24000, 139.
10.38000, 134.
10.52000, 264.
10.66000, 174.
10.80000, 112.
10.94000, 123.
11.08000, 141.
11.22000, 129.
11.36000, 112.
11.50000, 153.
11.64000, 127.
11.78000, 145.
11.92000, 151.
12.06000, 119.
12.20000, 154.
12.34000, 141.
12.48000, 162.
12.62000, 276.
12.76000, 203.
12.90000, 146.
13.04000, 151.
13.18000, 154.
13.32000, 164.
13.46000, 179.
13.60000, 161.
13.74000, 142.
13.88000, 133.
14.02000, 205.
14.16000, 202.
14.30000, 154.
14.44000, 134.
14.58000, 155.
14.72000, 178.
14.86000, 160.
15.00000, 163.
15.14000, 139.
15.28000, 148.
15.42000, 162.
15.56000, 200.
15.70000, 363.
15.84000, 256.
15.98000, 156.
16.12000, 139.
16.26000, 151.
16.40000, 129.
16.54000, 175.
16.68000, 141.
16.82000, 162.
16.96000, 143.
17.10000, 134.
17.24000, 160.
17.38000, 150.
17.52000, 176.
17.66000, 202.
17.80000, 193.
17.94000, 198.
18.08000, 236.
18.22000, 300.
18.36000, 367.
18.50000, 577.
18.64000, 734.
18.78000, 826.
18.92000, 753.
19.06000, 570.
19.20000, 376.
19.34000, 284.
19.48000, 216.
19.62000, 171.
19.76000, 161.
19.90000, 210.
20.04000, 402.
20.18000, 533.
20.32000, 277.
20.46000, 129.
20.60000, 160.
20.74000, 184.
20.88000, 235.
21.02000, 240.
21.16000, 206.
21.30000, 195.
21.44000, 149.
21.58000, 139.
21.72000, 130.
21.86000, 88.
22.00000, 96.
22.14000, 76.
22.28000, 93.
22.42000, 84.
22.56000, 111.
22.70000, 140.
22.84000, 96.
22.98000, 87.
23.12000, 73.
23.26000, 81.
23.40000, 74.
23.54000, 70.
23.68000, 65.
23.82000, 59.
23.96000, 59.
24.10000, 74.
24.24000, 67.
24.38000, 55.
24.52000, 65.
24.66000, 56.
24.80000, 47.
24.94000, 63.
25.08000, 60.
25.22000, 59.
25.36000, 53.
25.50000, 66.
25.64000, 42.
25.78000, 53.
25.92000, 68.
26.06000, 53.
26.20000, 48.
26.34000, 52.
26.48000, 58.
26.62000, 45.
26.76000, 46.
26.90000, 51.
27.04000, 41.
27.18000, 57.
27.32000, 43.
27.46000, 46.
27.60000, 42.
27.74000, 30.
27.88000, 41.
28.02000, 34.
28.16000, 43.
28.30000, 35.
28.44000, 39.
28.58000, 30.
28.72000, 44.
28.86000, 39.
29.00000, 29.
29.14000, 45.
29.28000, 37.
29.42000, 47.
29.56000, 34.
29.70000, 46.
29.84000, 38.
29.98000, 31.
30.12000, 29.
30.26000, 34.
30.40000, 33.
30.54000, 34.
30.68000, 28.
30.82000, 27.
30.96000, 34.
31.10000, 25.
31.24000, 24.
31.38000, 33.
31.52000, 24.
31.66000, 21.
31.80000, 27.
31.94000, 24.
32.08000, 25.
32.22000, 28.
32.36000, 15.
32.50000, 26.
32.64000, 26.
32.78000, 29.
32.92000, 19.
33.06000, 15.
33.20000, 28.
33.34000, 19.
33.48000, 15.
33.62000, 26.
33.76000, 18.
33.90000, 14.
34.04000, 18.
34.18000, 21.
34.32000, 20.
34.46000, 20.
34.60000, 13.
34.74000, 16.
34.88000, 19.
35.02000, 27.
35.16000, 20.
35.30000, 16.
35.44000, 11.
35.58000, 18.
35.72000, 14.
35.86000, 10.
36.00000, 13.
36.14000, 12.
36.28000, 18.
36.42000, 26.
36.56000, 10.
36.70000, 9.
36.84000, 14.
36.98000, 12.
37.12000, 7.
37.26000, 18.
37.40000, 11.
37.54000, 10.
37.68000, 13.
37.82000, 10.
37.96000, 16.
38.10000, 7.
38.24000, 5.
38.38000, 14.
38.52000, 6.
38.66000, 4.
38.80000, 9.
38.94000, 8.
39.08000, 8.
39.22000, 7.
39.36000, 6.
39.50000, 10.
39.64000, 2.
39.78000, 2.
39.92000, 3.
40.06000, 3.
40.20000, 4.
40.34000, 6.
40.48000, 4.
40.55000, 0.
#ENDOFDATA   :