File: sample_data/data/Spectrum value from standard/Nist 2586/Spectrum 28.txt
#FORMAT      : EMSA/MAS Spectral Data File
#VERSION     : 1.0
#TITLE       : Spectrum 28
#DATE        : 21-AUG-2025
#TIME        : 15:32
#OWNER       : XGT7200
#NPOINTS     : 4096.
#NCOLUMNS    : 1.
#XUNITS      : keV
#YUNITS      : counts
#DATATYPE    : XY
#XPERCHAN    : 0.0100000
#OFFSET      : -0.400000
#SIGNALTYPE  : EDS
#CHOFFSET    : 40.0000
#LIVETIME    : 30
#REALTIME    : 39.7353
#BEAMKV      : 50.0000
#PROBECUR    : 691000.
#MAGCAM      : 100.000
#XTILTSTGE   : 0.0
#AZIMANGLE   : 0.0
#ELEVANGLE   : 45.0
#XPOSITION mm: 0.0000
#YPOSITION mm: 0.0000
#ZPOSITION mm: 0.0000
##OXINSTPT   : 4
##OXINSTSTROB: 72.09
#SPECTRUM    : Spectral Data Starts Here
-0.40000, 0.
-0.26000, 0.
-0.12000, 0.
0.02000, 0.
0.16000, 0.
0.30000, 0.
0.44000, 37.
0.58000, 49.
0.72000, 33.
0.86000, 31.
1.00000, 39.
1.14000, 31.
1.28000, 71.
1.42000, 186.
1.56000, 238.
1.70000, 3310.
1.84000, 787.
1.98000, 53.
2.12000, 34.
2.26000, 38.
2.40000, 39.
2.54000, 51.
2.68000, 490.
2.82000, 336.
2.96000, 93.
3.10000, 37.
3.24000, 136.
3.38000, 192.
3.52000, 68.
3.66000, 1033.
3.80000, 165.
3.94000, 120.
4.08000, 106.
4.22000, 32.
4.36000, 45.
4.50000, 881.
4.64000, 142.
4.78000, 68.
4.92000, 180.
5.06000, 51.
5.20000, 52.
5.34000, 91.
5.48000, 106.
5.62000, 73.
5.76000, 73.
5.90000, 283.
6.04000, 93.
6.18000, 162.
6.32000, 7321.
6.46000, 10329.
6.60000, 209.
6.74000, 97.
6.88000, 217.
7.02000, 2381.
7.16000, 747.
7.30000, 82.
7.44000, 94.
7.58000, 63.
7.72000, 76.
7.86000, 79.
8.00000, 142.
8.14000, 129.
8.28000, 110.
8.42000, 123.
8.56000, 191.
8.70000, 240.
8.84000, 119.
8.98000, 119.
9.12000, 117.
9.26000, 123.
9.40000, 131.
9.54000, 134.
9.68000, 118.
9.82000, 126.
9.96000, 123.
10.10000, 123.
10.24000, 126.
10.38000, 155.
10.52000, 256.
10.66000, 171.
10.80000, 137.
10.94000, 144.
11.08000, 133.
11.22000, 120.
11.36000, 134.
11.50000, 137.
11.64000, 132.
11.78000, 115.
11.92000, 130.
12.06000, 141.
12.20000, 127.
12.34000, 136.
12.48000, 186.
12.62000, 289.
12.76000, 200.
12.90000, 147.
13.04000, 145.
13.18000, 170.
13.32000, 187.
13.46000, 171.
13.60000, 158.
13.74000, 131.
13.88000, 138.
14.02000, 193.
14.16000, 221.
14.30000, 146.
14.44000, 117.
14.58000, 162.
14.72000, 156.
14.86000, 153.
15.00000, 172.
15.14000, 148.
15.28000, 152.
15.42000, 156.
15.56000, 218.
15.70000, 415.
15.84000, 274.
15.98000, 154.
16.12000, 134.
16.26000, 160.
16.40000, 144.
16.54000, 146.
16.68000, 160.
16.82000, 138.
16.96000, 121.
17.10000, 156.
17.24000, 143.
17.38000, 182.
17.52000, 197.
17.66000, 207.
17.80000, 225.
17.94000, 222.
18.08000, 220.
18.22000, 241.
18.36000, 387.
18.50000, 505.
18.64000, 732.
18.78000, 873.
18.92000, 794.
19.06000, 602.
19.20000, 414.
19.34000, 299.
19.48000, 218.
19.62000, 194.
19.76000, 159.
19.90000, 228.
20.04000, 442.
20.18000, 526.
20.32000, 275.
20.46000, 149.
20.60000, 173.
20.74000, 215.
20.88000, 217.
21.02000, 205.
21.16000, 213.
21.30000, 191.
21.44000, 143.
21.58000, 132.
21.72000, 105.
21.86000, 116.
22.00000, 91.
22.14000, 102.
22.28000, 80.
22.42000, 86.
22.56000, 107.
22.70000, 140.
22.84000, 90.
22.98000, 79.
23.12000, 91.
23.26000, 68.
23.40000, 53.
23.54000, 76.
23.68000, 68.
23.82000, 63.
23.96000, 63.
24.10000, 60.
24.24000, 66.
24.38000, 64.
24.52000, 61.
24.66000, 64.
24.80000, 61.
24.94000, 56.
25.08000, 75.
25.22000, 67.
25.36000, 52.
25.50000, 56.
25.64000, 55.
25.78000, 59.
25.92000, 59.
26.06000, 53.
26.20000, 55.
26.34000, 54.
26.48000, 62.
26.62000, 42.
26.76000, 57.
26.90000, 46.
27.04000, 52.
27.18000, 61.
27.32000, 51.
27.46000, 51.
27.60000, 52.
27.74000, 44.
27.88000, 38.
28.02000, 43.
28.16000, 35.
28.30000, 37.
28.44000, 54.
28.58000, 39.
28.72000, 43.
28.86000, 37.
29.00000, 34.
29.14000, 39.
29.28000, 29.
29.42000, 45.
29.56000, 34.
29.70000, 25.
29.84000, 29.
29.98000, 28.
30.12000, 34.
30.26000, 35.
30.40000, 30.
30.54000, 27.
30.68000, 36.
30.82000, 36.
30.96000, 39.
31.10000, 39.
31.24000, 34.
31.38000, 31.
31.52000, 25.
31.66000, 23.
31.80000, 27.
31.94000, 22.
32.08000, 27.
32.22000, 31.
32.36000, 35.
32.50000, 29.
32.64000, 24.
32.78000, 21.
32.92000, 20.
33.06000, 33.
33.20000, 18.
33.34000, 20.
33.48000, 17.
33.62000, 20.
33.76000, 20.
33.90000, 16.
34.04000, 19.
34.18000, 26.
34.32000, 24.
34.46000, 23.
34.60000, 18.
34.74000, 17.
34.88000, 22.
35.02000, 21.
35.16000, 24.
35.30000, 18.
35.44000, 19.
35.58000, 11.
35.72000, 18.
35.86000, 7.
36.00000, 13.
36.14000, 18.
36.28000, 14.
36.42000, 13.
36.56000, 16.
36.70000, 5.
36.84000, 11.
36.98000, 13.
37.12000, 12.
37.26000, 16.
37.40000, 9.
37.54000, 14.
37.68000, 4.
37.82000, 6.
37.96000, 8.
38.10000, 11.
38.24000, 11.
38.38000, 8.
38.52000, 13.
38.66000, 11.
38.80000, 8.
38.94000, 3.
39.08000, 3.
39.22000, 2.
39.36000, 9.
39.50000, 4.
39.64000, 7.
39.78000, 2.
39.92000, 5.
40.06000, 4.
40.20000, 5.
40.34000, 5.
40.48000, 2.
40.55000, 0.
#ENDOFDATA   :