File: sample_data/data/Spectrum value from standard/Nist 2586/Spectrum 29.txt
#FORMAT      : EMSA/MAS Spectral Data File
#VERSION     : 1.0
#TITLE       : Spectrum 29
#DATE        : 21-AUG-2025
#TIME        : 15:33
#OWNER       : XGT7200
#NPOINTS     : 4096.
#NCOLUMNS    : 1.
#XUNITS      : keV
#YUNITS      : counts
#DATATYPE    : XY
#XPERCHAN    : 0.0100000
#OFFSET      : -0.400000
#SIGNALTYPE  : EDS
#CHOFFSET    : 40.0000
#LIVETIME    : 30
#REALTIME    : 39.665
#BEAMKV      : 50.0000
#PROBECUR    : 664000.
#MAGCAM      : 100.000
#XTILTSTGE   : 0.0
#AZIMANGLE   : 0.0
#ELEVANGLE   : 45.0
#XPOSITION mm: 0.0000
#YPOSITION mm: 0.0000
#ZPOSITION mm: 0.0000
##OXINSTPT   : 4
##OXINSTSTROB: 72.08
#SPECTRUM    : Spectral Data Starts Here
-0.40000, 0.
-0.26000, 0.
-0.12000, 0.
0.02000, 0.
0.16000, 0.
0.30000, 0.
0.44000, 35.
0.58000, 47.
0.72000, 41.
0.86000, 48.
1.00000, 39.
1.14000, 32.
1.28000, 87.
1.42000, 179.
1.56000, 257.
1.70000, 3389.
1.84000, 764.
1.98000, 65.
2.12000, 39.
2.26000, 43.
2.40000, 52.
2.54000, 53.
2.68000, 535.
2.82000, 281.
2.96000, 102.
3.10000, 34.
3.24000, 134.
3.38000, 192.
3.52000, 64.
3.66000, 1020.
3.80000, 203.
3.94000, 85.
4.08000, 138.
4.22000, 34.
4.36000, 41.
4.50000, 823.
4.64000, 140.
4.78000, 63.
4.92000, 198.
5.06000, 57.
5.20000, 60.
5.34000, 91.
5.48000, 81.
5.62000, 61.
5.76000, 74.
5.90000, 324.
6.04000, 90.
6.18000, 157.
6.32000, 7208.
6.46000, 10377.
6.60000, 221.
6.74000, 107.
6.88000, 250.
7.02000, 2343.
7.16000, 733.
7.30000, 89.
7.44000, 104.
7.58000, 66.
7.72000, 78.
7.86000, 105.
8.00000, 146.
8.14000, 128.
8.28000, 102.
8.42000, 111.
8.56000, 211.
8.70000, 213.
8.84000, 112.
8.98000, 121.
9.12000, 119.
9.26000, 120.
9.40000, 97.
9.54000, 130.
9.68000, 131.
9.82000, 135.
9.96000, 115.
10.10000, 129.
10.24000, 133.
10.38000, 134.
10.52000, 246.
10.66000, 144.
10.80000, 138.
10.94000, 139.
11.08000, 121.
11.22000, 107.
11.36000, 124.
11.50000, 144.
11.64000, 128.
11.78000, 135.
11.92000, 158.
12.06000, 139.
12.20000, 140.
12.34000, 142.
12.48000, 178.
12.62000, 252.
12.76000, 216.
12.90000, 163.
13.04000, 150.
13.18000, 154.
13.32000, 185.
13.46000, 204.
13.60000, 168.
13.74000, 130.
13.88000, 140.
14.02000, 182.
14.16000, 220.
14.30000, 151.
14.44000, 164.
14.58000, 154.
14.72000, 179.
14.86000, 190.
15.00000, 173.
15.14000, 138.
15.28000, 160.
15.42000, 136.
15.56000, 202.
15.70000, 395.
15.84000, 259.
15.98000, 149.
16.12000, 129.
16.26000, 124.
16.40000, 157.
16.54000, 147.
16.68000, 166.
16.82000, 163.
16.96000, 141.
17.10000, 150.
17.24000, 151.
17.38000, 184.
17.52000, 180.
17.66000, 215.
17.80000, 189.
17.94000, 197.
18.08000, 226.
18.22000, 288.
18.36000, 388.
18.50000, 565.
18.64000, 830.
18.78000, 884.
18.92000, 781.
19.06000, 628.
19.20000, 423.
19.34000, 292.
19.48000, 214.
19.62000, 175.
19.76000, 173.
19.90000, 232.
20.04000, 402.
20.18000, 464.
20.32000, 275.
20.46000, 151.
20.60000, 157.
20.74000, 180.
20.88000, 236.
21.02000, 220.
21.16000, 172.
21.30000, 179.
21.44000, 150.
21.58000, 125.
21.72000, 108.
21.86000, 96.
22.00000, 100.
22.14000, 79.
22.28000, 77.
22.42000, 81.
22.56000, 103.
22.70000, 134.
22.84000, 77.
22.98000, 92.
23.12000, 87.
23.26000, 82.
23.40000, 78.
23.54000, 55.
23.68000, 66.
23.82000, 47.
23.96000, 63.
24.10000, 53.
24.24000, 52.
24.38000, 66.
24.52000, 52.
24.66000, 73.
24.80000, 53.
24.94000, 65.
25.08000, 73.
25.22000, 63.
25.36000, 79.
25.50000, 53.
25.64000, 56.
25.78000, 41.
25.92000, 54.
26.06000, 48.
26.20000, 43.
26.34000, 46.
26.48000, 56.
26.62000, 57.
26.76000, 42.
26.90000, 34.
27.04000, 38.
27.18000, 42.
27.32000, 47.
27.46000, 44.
27.60000, 41.
27.74000, 48.
27.88000, 53.
28.02000, 53.
28.16000, 41.
28.30000, 46.
28.44000, 43.
28.58000, 39.
28.72000, 43.
28.86000, 37.
29.00000, 43.
29.14000, 35.
29.28000, 38.
29.42000, 39.
29.56000, 37.
29.70000, 16.
29.84000, 29.
29.98000, 36.
30.12000, 29.
30.26000, 39.
30.40000, 23.
30.54000, 34.
30.68000, 36.
30.82000, 36.
30.96000, 21.
31.10000, 28.
31.24000, 34.
31.38000, 30.
31.52000, 27.
31.66000, 32.
31.80000, 31.
31.94000, 22.
32.08000, 19.
32.22000, 22.
32.36000, 32.
32.50000, 23.
32.64000, 23.
32.78000, 26.
32.92000, 18.
33.06000, 19.
33.20000, 26.
33.34000, 20.
33.48000, 26.
33.62000, 14.
33.76000, 16.
33.90000, 18.
34.04000, 19.
34.18000, 24.
34.32000, 10.
34.46000, 19.
34.60000, 21.
34.74000, 21.
34.88000, 17.
35.02000, 20.
35.16000, 12.
35.30000, 16.
35.44000, 14.
35.58000, 20.
35.72000, 15.
35.86000, 15.
36.00000, 17.
36.14000, 15.
36.28000, 7.
36.42000, 17.
36.56000, 13.
36.70000, 9.
36.84000, 16.
36.98000, 10.
37.12000, 8.
37.26000, 9.
37.40000, 9.
37.54000, 8.
37.68000, 10.
37.82000, 10.
37.96000, 7.
38.10000, 6.
38.24000, 8.
38.38000, 7.
38.52000, 7.
38.66000, 6.
38.80000, 4.
38.94000, 7.
39.08000, 5.
39.22000, 5.
39.36000, 4.
39.50000, 8.
39.64000, 10.
39.78000, 8.
39.92000, 9.
40.06000, 6.
40.20000, 4.
40.34000, 6.
40.48000, 4.
40.55000, 0.
#ENDOFDATA   :