File: sample_data/data/Spectrum value from standard/Nist 2586/Spectrum 25.txt
#FORMAT      : EMSA/MAS Spectral Data File
#VERSION     : 1.0
#TITLE       : Spectrum 25
#DATE        : 21-AUG-2025
#TIME        : 15:29
#OWNER       : XGT7200
#NPOINTS     : 4096.
#NCOLUMNS    : 1.
#XUNITS      : keV
#YUNITS      : counts
#DATATYPE    : XY
#XPERCHAN    : 0.0100000
#OFFSET      : -0.400000
#SIGNALTYPE  : EDS
#CHOFFSET    : 40.0000
#LIVETIME    : 30
#REALTIME    : 39.6969
#BEAMKV      : 50.0000
#PROBECUR    : 673000.
#MAGCAM      : 100.000
#XTILTSTGE   : 0.0
#AZIMANGLE   : 0.0
#ELEVANGLE   : 45.0
#XPOSITION mm: 0.0000
#YPOSITION mm: 0.0000
#ZPOSITION mm: 0.0000
##OXINSTPT   : 4
##OXINSTSTROB: 71.77
#SPECTRUM    : Spectral Data Starts Here
-0.40000, 0.
-0.26000, 0.
-0.12000, 0.
0.02000, 0.
0.16000, 0.
0.30000, 0.
0.44000, 42.
0.58000, 41.
0.72000, 37.
0.86000, 32.
1.00000, 34.
1.14000, 40.
1.28000, 70.
1.42000, 176.
1.56000, 251.
1.70000, 3592.
1.84000, 794.
1.98000, 65.
2.12000, 27.
2.26000, 47.
2.40000, 41.
2.54000, 42.
2.68000, 429.
2.82000, 292.
2.96000, 98.
3.10000, 37.
3.24000, 149.
3.38000, 231.
3.52000, 52.
3.66000, 1059.
3.80000, 182.
3.94000, 86.
4.08000, 106.
4.22000, 38.
4.36000, 49.
4.50000, 1025.
4.64000, 137.
4.78000, 67.
4.92000, 232.
5.06000, 56.
5.20000, 60.
5.34000, 99.
5.48000, 99.
5.62000, 61.
5.76000, 81.
5.90000, 302.
6.04000, 110.
6.18000, 126.
6.32000, 7168.
6.46000, 10113.
6.60000, 189.
6.74000, 146.
6.88000, 240.
7.02000, 2363.
7.16000, 745.
7.30000, 73.
7.44000, 106.
7.58000, 68.
7.72000, 80.
7.86000, 128.
8.00000, 160.
8.14000, 175.
8.28000, 93.
8.42000, 102.
8.56000, 217.
8.70000, 184.
8.84000, 115.
8.98000, 122.
9.12000, 114.
9.26000, 132.
9.40000, 137.
9.54000, 142.
9.68000, 144.
9.82000, 150.
9.96000, 130.
10.10000, 132.
10.24000, 136.
10.38000, 191.
10.52000, 256.
10.66000, 152.
10.80000, 139.
10.94000, 123.
11.08000, 156.
11.22000, 128.
11.36000, 166.
11.50000, 139.
11.64000, 138.
11.78000, 142.
11.92000, 135.
12.06000, 125.
12.20000, 155.
12.34000, 145.
12.48000, 184.
12.62000, 287.
12.76000, 207.
12.90000, 170.
13.04000, 159.
13.18000, 152.
13.32000, 186.
13.46000, 189.
13.60000, 143.
13.74000, 146.
13.88000, 139.
14.02000, 191.
14.16000, 226.
14.30000, 141.
14.44000, 141.
14.58000, 125.
14.72000, 162.
14.86000, 179.
15.00000, 137.
15.14000, 163.
15.28000, 139.
15.42000, 167.
15.56000, 193.
15.70000, 369.
15.84000, 300.
15.98000, 146.
16.12000, 156.
16.26000, 144.
16.40000, 156.
16.54000, 172.
16.68000, 163.
16.82000, 181.
16.96000, 154.
17.10000, 103.
17.24000, 145.
17.38000, 143.
17.52000, 176.
17.66000, 220.
17.80000, 169.
17.94000, 190.
18.08000, 233.
18.22000, 268.
18.36000, 386.
18.50000, 547.
18.64000, 758.
18.78000, 882.
18.92000, 817.
19.06000, 601.
19.20000, 370.
19.34000, 307.
19.48000, 251.
19.62000, 196.
19.76000, 141.
19.90000, 194.
20.04000, 423.
20.18000, 488.
20.32000, 249.
20.46000, 175.
20.60000, 154.
20.74000, 209.
20.88000, 231.
21.02000, 214.
21.16000, 201.
21.30000, 182.
21.44000, 146.
21.58000, 123.
21.72000, 106.
21.86000, 102.
22.00000, 94.
22.14000, 84.
22.28000, 99.
22.42000, 77.
22.56000, 97.
22.70000, 126.
22.84000, 107.
22.98000, 94.
23.12000, 78.
23.26000, 65.
23.40000, 77.
23.54000, 70.
23.68000, 55.
23.82000, 61.
23.96000, 54.
24.10000, 68.
24.24000, 52.
24.38000, 56.
24.52000, 68.
24.66000, 59.
24.80000, 65.
24.94000, 54.
25.08000, 68.
25.22000, 76.
25.36000, 64.
25.50000, 56.
25.64000, 51.
25.78000, 59.
25.92000, 55.
26.06000, 54.
26.20000, 52.
26.34000, 58.
26.48000, 64.
26.62000, 60.
26.76000, 63.
26.90000, 34.
27.04000, 50.
27.18000, 37.
27.32000, 50.
27.46000, 47.
27.60000, 47.
27.74000, 35.
27.88000, 44.
28.02000, 40.
28.16000, 49.
28.30000, 49.
28.44000, 34.
28.58000, 30.
28.72000, 37.
28.86000, 33.
29.00000, 40.
29.14000, 27.
29.28000, 39.
29.42000, 45.
29.56000, 43.
29.70000, 34.
29.84000, 30.
29.98000, 33.
30.12000, 39.
30.26000, 34.
30.40000, 35.
30.54000, 34.
30.68000, 42.
30.82000, 33.
30.96000, 32.
31.10000, 26.
31.24000, 29.
31.38000, 32.
31.52000, 27.
31.66000, 21.
31.80000, 41.
31.94000, 29.
32.08000, 33.
32.22000, 40.
32.36000, 26.
32.50000, 15.
32.64000, 20.
32.78000, 23.
32.92000, 21.
33.06000, 22.
33.20000, 21.
33.34000, 12.
33.48000, 27.
33.62000, 16.
33.76000, 21.
33.90000, 22.
34.04000, 26.
34.18000, 27.
34.32000, 16.
34.46000, 8.
34.60000, 15.
34.74000, 17.
34.88000, 11.
35.02000, 10.
35.16000, 19.
35.30000, 19.
35.44000, 10.
35.58000, 22.
35.72000, 17.
35.86000, 8.
36.00000, 16.
36.14000, 11.
36.28000, 13.
36.42000, 9.
36.56000, 9.
36.70000, 9.
36.84000, 10.
36.98000, 9.
37.12000, 8.
37.26000, 11.
37.40000, 11.
37.54000, 15.
37.68000, 9.
37.82000, 14.
37.96000, 7.
38.10000, 8.
38.24000, 3.
38.38000, 5.
38.52000, 6.
38.66000, 2.
38.80000, 4.
38.94000, 8.
39.08000, 9.
39.22000, 6.
39.36000, 6.
39.50000, 8.
39.64000, 5.
39.78000, 6.
39.92000, 5.
40.06000, 7.
40.20000, 4.
40.34000, 6.
40.48000, 2.
40.55000, 0.
#ENDOFDATA   :