File: sample_data/data/Spectrum value from standard/Till 1/Spectrum 2.txt
#FORMAT      : EMSA/MAS Spectral Data File
#VERSION     : 1.0
#TITLE       : Spectrum 2
#DATE        : 21-AUG-2025
#TIME        : 15:06
#OWNER       : XGT7200
#NPOINTS     : 4096.
#NCOLUMNS    : 1.
#XUNITS      : keV
#YUNITS      : counts
#DATATYPE    : XY
#XPERCHAN    : 0.0100000
#OFFSET      : -0.400000
#SIGNALTYPE  : EDS
#CHOFFSET    : 40.0000
#LIVETIME    : 30
#REALTIME    : 39.479
#BEAMKV      : 50.0000
#PROBECUR    : 695000.
#MAGCAM      : 100.000
#XTILTSTGE   : 0.0
#AZIMANGLE   : 0.0
#ELEVANGLE   : 45.0
#XPOSITION mm: 0.0000
#YPOSITION mm: 0.0000
#ZPOSITION mm: 0.0000
##OXINSTPT   : 4
##OXINSTSTROB: 72.06
#SPECTRUM    : Spectral Data Starts Here
-0.40000, 0.
-0.26000, 0.
-0.12000, 0.
0.02000, 0.
0.16000, 0.
0.30000, 0.
0.44000, 38.
0.58000, 38.
0.72000, 26.
0.86000, 42.
1.00000, 44.
1.14000, 40.
1.28000, 60.
1.42000, 165.
1.56000, 224.
1.70000, 3240.
1.84000, 748.
1.98000, 74.
2.12000, 30.
2.26000, 50.
2.40000, 30.
2.54000, 37.
2.68000, 451.
2.82000, 265.
2.96000, 72.
3.10000, 25.
3.24000, 243.
3.38000, 323.
3.52000, 77.
3.66000, 963.
3.80000, 147.
3.94000, 89.
4.08000, 109.
4.22000, 21.
4.36000, 55.
4.50000, 633.
4.64000, 113.
4.78000, 80.
4.92000, 155.
5.06000, 60.
5.20000, 63.
5.34000, 61.
5.48000, 73.
5.62000, 52.
5.76000, 90.
5.90000, 467.
6.04000, 90.
6.18000, 167.
6.32000, 7183.
6.46000, 9916.
6.60000, 192.
6.74000, 99.
6.88000, 210.
7.02000, 2314.
7.16000, 747.
7.30000, 90.
7.44000, 68.
7.58000, 79.
7.72000, 85.
7.86000, 93.
8.00000, 128.
8.14000, 138.
8.28000, 94.
8.42000, 111.
8.56000, 128.
8.70000, 127.
8.84000, 117.
8.98000, 127.
9.12000, 133.
9.26000, 132.
9.40000, 108.
9.54000, 96.
9.68000, 137.
9.82000, 128.
9.96000, 117.
10.10000, 120.
10.24000, 116.
10.38000, 114.
10.52000, 133.
10.66000, 139.
10.80000, 132.
10.94000, 111.
11.08000, 157.
11.22000, 140.
11.36000, 115.
11.50000, 136.
11.64000, 129.
11.78000, 135.
11.92000, 150.
12.06000, 138.
12.20000, 136.
12.34000, 151.
12.48000, 143.
12.62000, 140.
12.76000, 189.
12.90000, 159.
13.04000, 162.
13.18000, 124.
13.32000, 206.
13.46000, 177.
13.60000, 146.
13.74000, 146.
13.88000, 154.
14.02000, 301.
14.16000, 378.
14.30000, 176.
14.44000, 133.
14.58000, 140.
14.72000, 136.
14.86000, 167.
15.00000, 164.
15.14000, 135.
15.28000, 147.
15.42000, 142.
15.56000, 252.
15.70000, 562.
15.84000, 381.
15.98000, 170.
16.12000, 131.
16.26000, 144.
16.40000, 150.
16.54000, 134.
16.68000, 143.
16.82000, 145.
16.96000, 154.
17.10000, 163.
17.24000, 150.
17.38000, 145.
17.52000, 197.
17.66000, 228.
17.80000, 202.
17.94000, 215.
18.08000, 240.
18.22000, 285.
18.36000, 357.
18.50000, 562.
18.64000, 746.
18.78000, 866.
18.92000, 796.
19.06000, 556.
19.20000, 386.
19.34000, 305.
19.48000, 233.
19.62000, 152.
19.76000, 145.
19.90000, 226.
20.04000, 424.
20.18000, 496.
20.32000, 243.
20.46000, 158.
20.60000, 154.
20.74000, 215.
20.88000, 202.
21.02000, 215.
21.16000, 184.
21.30000, 194.
21.44000, 137.
21.58000, 105.
21.72000, 98.
21.86000, 104.
22.00000, 90.
22.14000, 87.
22.28000, 81.
22.42000, 84.
22.56000, 119.
22.70000, 140.
22.84000, 105.
22.98000, 75.
23.12000, 73.
23.26000, 73.
23.40000, 65.
23.54000, 75.
23.68000, 67.
23.82000, 67.
23.96000, 78.
24.10000, 61.
24.24000, 64.
24.38000, 66.
24.52000, 59.
24.66000, 64.
24.80000, 70.
24.94000, 64.
25.08000, 65.
25.22000, 49.
25.36000, 82.
25.50000, 69.
25.64000, 46.
25.78000, 51.
25.92000, 46.
26.06000, 48.
26.20000, 43.
26.34000, 59.
26.48000, 53.
26.62000, 61.
26.76000, 47.
26.90000, 47.
27.04000, 37.
27.18000, 54.
27.32000, 45.
27.46000, 54.
27.60000, 55.
27.74000, 48.
27.88000, 43.
28.02000, 52.
28.16000, 46.
28.30000, 48.
28.44000, 42.
28.58000, 42.
28.72000, 39.
28.86000, 34.
29.00000, 44.
29.14000, 37.
29.28000, 39.
29.42000, 32.
29.56000, 38.
29.70000, 35.
29.84000, 35.
29.98000, 18.
30.12000, 26.
30.26000, 31.
30.40000, 42.
30.54000, 35.
30.68000, 37.
30.82000, 31.
30.96000, 38.
31.10000, 33.
31.24000, 27.
31.38000, 25.
31.52000, 23.
31.66000, 24.
31.80000, 31.
31.94000, 30.
32.08000, 35.
32.22000, 24.
32.36000, 26.
32.50000, 22.
32.64000, 26.
32.78000, 27.
32.92000, 29.
33.06000, 17.
33.20000, 24.
33.34000, 17.
33.48000, 28.
33.62000, 31.
33.76000, 24.
33.90000, 23.
34.04000, 27.
34.18000, 18.
34.32000, 13.
34.46000, 13.
34.60000, 15.
34.74000, 20.
34.88000, 13.
35.02000, 19.
35.16000, 22.
35.30000, 12.
35.44000, 20.
35.58000, 23.
35.72000, 10.
35.86000, 14.
36.00000, 13.
36.14000, 22.
36.28000, 19.
36.42000, 18.
36.56000, 12.
36.70000, 9.
36.84000, 10.
36.98000, 12.
37.12000, 17.
37.26000, 10.
37.40000, 8.
37.54000, 9.
37.68000, 9.
37.82000, 5.
37.96000, 8.
38.10000, 7.
38.24000, 8.
38.38000, 5.
38.52000, 9.
38.66000, 9.
38.80000, 5.
38.94000, 5.
39.08000, 8.
39.22000, 7.
39.36000, 6.
39.50000, 2.
39.64000, 4.
39.78000, 9.
39.92000, 6.
40.06000, 5.
40.20000, 7.
40.34000, 2.
40.48000, 3.
40.55000, 0.
#ENDOFDATA   :