File: sample_data/data/Spectrum value from standard/Till 1/Spectrum 5.txt
#FORMAT      : EMSA/MAS Spectral Data File
#VERSION     : 1.0
#TITLE       : Spectrum 5
#DATE        : 21-AUG-2025
#TIME        : 15:09
#OWNER       : XGT7200
#NPOINTS     : 4096.
#NCOLUMNS    : 1.
#XUNITS      : keV
#YUNITS      : counts
#DATATYPE    : XY
#XPERCHAN    : 0.0100000
#OFFSET      : -0.400000
#SIGNALTYPE  : EDS
#CHOFFSET    : 40.0000
#LIVETIME    : 30
#REALTIME    : 39.6464
#BEAMKV      : 50.0000
#PROBECUR    : 714000.
#MAGCAM      : 100.000
#XTILTSTGE   : 0.0
#AZIMANGLE   : 0.0
#ELEVANGLE   : 45.0
#XPOSITION mm: 0.0000
#YPOSITION mm: 0.0000
#ZPOSITION mm: 0.0000
##OXINSTPT   : 4
##OXINSTSTROB: 71.90
#SPECTRUM    : Spectral Data Starts Here
-0.40000, 0.
-0.26000, 0.
-0.12000, 0.
0.02000, 0.
0.16000, 0.
0.30000, 0.
0.44000, 38.
0.58000, 35.
0.72000, 35.
0.86000, 38.
1.00000, 47.
1.14000, 38.
1.28000, 62.
1.42000, 184.
1.56000, 284.
1.70000, 3432.
1.84000, 771.
1.98000, 68.
2.12000, 36.
2.26000, 34.
2.40000, 27.
2.54000, 40.
2.68000, 426.
2.82000, 219.
2.96000, 82.
3.10000, 43.
3.24000, 232.
3.38000, 353.
3.52000, 66.
3.66000, 1048.
3.80000, 160.
3.94000, 102.
4.08000, 92.
4.22000, 30.
4.36000, 51.
4.50000, 606.
4.64000, 129.
4.78000, 68.
4.92000, 155.
5.06000, 59.
5.20000, 45.
5.34000, 49.
5.48000, 78.
5.62000, 54.
5.76000, 80.
5.90000, 437.
6.04000, 88.
6.18000, 146.
6.32000, 7085.
6.46000, 9866.
6.60000, 175.
6.74000, 116.
6.88000, 227.
7.02000, 2305.
7.16000, 686.
7.30000, 62.
7.44000, 58.
7.58000, 71.
7.72000, 80.
7.86000, 99.
8.00000, 138.
8.14000, 129.
8.28000, 113.
8.42000, 111.
8.56000, 137.
8.70000, 148.
8.84000, 107.
8.98000, 107.
9.12000, 129.
9.26000, 141.
9.40000, 128.
9.54000, 112.
9.68000, 130.
9.82000, 130.
9.96000, 106.
10.10000, 133.
10.24000, 120.
10.38000, 116.
10.52000, 168.
10.66000, 128.
10.80000, 149.
10.94000, 117.
11.08000, 141.
11.22000, 110.
11.36000, 127.
11.50000, 124.
11.64000, 131.
11.78000, 131.
11.92000, 172.
12.06000, 163.
12.20000, 155.
12.34000, 142.
12.48000, 151.
12.62000, 167.
12.76000, 185.
12.90000, 167.
13.04000, 171.
13.18000, 145.
13.32000, 197.
13.46000, 147.
13.60000, 157.
13.74000, 157.
13.88000, 160.
14.02000, 306.
14.16000, 414.
14.30000, 162.
14.44000, 166.
14.58000, 151.
14.72000, 157.
14.86000, 160.
15.00000, 151.
15.14000, 158.
15.28000, 155.
15.42000, 152.
15.56000, 241.
15.70000, 648.
15.84000, 470.
15.98000, 170.
16.12000, 169.
16.26000, 162.
16.40000, 138.
16.54000, 166.
16.68000, 138.
16.82000, 178.
16.96000, 174.
17.10000, 137.
17.24000, 163.
17.38000, 174.
17.52000, 210.
17.66000, 251.
17.80000, 189.
17.94000, 204.
18.08000, 234.
18.22000, 321.
18.36000, 386.
18.50000, 522.
18.64000, 806.
18.78000, 885.
18.92000, 774.
19.06000, 555.
19.20000, 404.
19.34000, 274.
19.48000, 233.
19.62000, 195.
19.76000, 159.
19.90000, 219.
20.04000, 410.
20.18000, 486.
20.32000, 237.
20.46000, 176.
20.60000, 170.
20.74000, 210.
20.88000, 256.
21.02000, 210.
21.16000, 217.
21.30000, 183.
21.44000, 151.
21.58000, 127.
21.72000, 110.
21.86000, 97.
22.00000, 90.
22.14000, 91.
22.28000, 79.
22.42000, 92.
22.56000, 118.
22.70000, 157.
22.84000, 87.
22.98000, 78.
23.12000, 65.
23.26000, 73.
23.40000, 61.
23.54000, 60.
23.68000, 69.
23.82000, 66.
23.96000, 74.
24.10000, 83.
24.24000, 53.
24.38000, 58.
24.52000, 57.
24.66000, 40.
24.80000, 54.
24.94000, 47.
25.08000, 56.
25.22000, 63.
25.36000, 57.
25.50000, 54.
25.64000, 50.
25.78000, 48.
25.92000, 58.
26.06000, 48.
26.20000, 40.
26.34000, 56.
26.48000, 38.
26.62000, 54.
26.76000, 41.
26.90000, 51.
27.04000, 55.
27.18000, 36.
27.32000, 46.
27.46000, 57.
27.60000, 52.
27.74000, 54.
27.88000, 42.
28.02000, 52.
28.16000, 48.
28.30000, 44.
28.44000, 40.
28.58000, 36.
28.72000, 38.
28.86000, 43.
29.00000, 56.
29.14000, 42.
29.28000, 35.
29.42000, 40.
29.56000, 34.
29.70000, 34.
29.84000, 35.
29.98000, 30.
30.12000, 30.
30.26000, 30.
30.40000, 37.
30.54000, 39.
30.68000, 37.
30.82000, 31.
30.96000, 35.
31.10000, 32.
31.24000, 35.
31.38000, 21.
31.52000, 30.
31.66000, 30.
31.80000, 30.
31.94000, 43.
32.08000, 39.
32.22000, 30.
32.36000, 23.
32.50000, 25.
32.64000, 24.
32.78000, 23.
32.92000, 22.
33.06000, 31.
33.20000, 18.
33.34000, 32.
33.48000, 21.
33.62000, 29.
33.76000, 28.
33.90000, 22.
34.04000, 27.
34.18000, 20.
34.32000, 17.
34.46000, 21.
34.60000, 19.
34.74000, 15.
34.88000, 11.
35.02000, 21.
35.16000, 24.
35.30000, 15.
35.44000, 14.
35.58000, 14.
35.72000, 16.
35.86000, 14.
36.00000, 19.
36.14000, 16.
36.28000, 13.
36.42000, 21.
36.56000, 9.
36.70000, 9.
36.84000, 10.
36.98000, 8.
37.12000, 14.
37.26000, 12.
37.40000, 13.
37.54000, 14.
37.68000, 10.
37.82000, 8.
37.96000, 9.
38.10000, 6.
38.24000, 10.
38.38000, 8.
38.52000, 9.
38.66000, 5.
38.80000, 9.
38.94000, 4.
39.08000, 6.
39.22000, 6.
39.36000, 7.
39.50000, 13.
39.64000, 3.
39.78000, 7.
39.92000, 6.
40.06000, 4.
40.20000, 4.
40.34000, 8.
40.48000, 2.
40.55000, 0.
#ENDOFDATA   :