File: sample_data/data/Spectrum value from standard/Till 1/Spectrum 4.txt
#FORMAT      : EMSA/MAS Spectral Data File
#VERSION     : 1.0
#TITLE       : Spectrum 4
#DATE        : 21-AUG-2025
#TIME        : 15:08
#OWNER       : XGT7200
#NPOINTS     : 4096.
#NCOLUMNS    : 1.
#XUNITS      : keV
#YUNITS      : counts
#DATATYPE    : XY
#XPERCHAN    : 0.0100000
#OFFSET      : -0.400000
#SIGNALTYPE  : EDS
#CHOFFSET    : 40.0000
#LIVETIME    : 30
#REALTIME    : 39.5541
#BEAMKV      : 50.0000
#PROBECUR    : 692000.
#MAGCAM      : 100.000
#XTILTSTGE   : 0.0
#AZIMANGLE   : 0.0
#ELEVANGLE   : 45.0
#XPOSITION mm: 0.0000
#YPOSITION mm: 0.0000
#ZPOSITION mm: 0.0000
##OXINSTPT   : 4
##OXINSTSTROB: 71.91
#SPECTRUM    : Spectral Data Starts Here
-0.40000, 0.
-0.26000, 0.
-0.12000, 0.
0.02000, 0.
0.16000, 0.
0.30000, 0.
0.44000, 42.
0.58000, 36.
0.72000, 36.
0.86000, 31.
1.00000, 45.
1.14000, 38.
1.28000, 71.
1.42000, 195.
1.56000, 248.
1.70000, 3393.
1.84000, 755.
1.98000, 82.
2.12000, 35.
2.26000, 34.
2.40000, 34.
2.54000, 42.
2.68000, 407.
2.82000, 291.
2.96000, 84.
3.10000, 32.
3.24000, 214.
3.38000, 382.
3.52000, 80.
3.66000, 934.
3.80000, 147.
3.94000, 73.
4.08000, 117.
4.22000, 37.
4.36000, 47.
4.50000, 612.
4.64000, 137.
4.78000, 52.
4.92000, 152.
5.06000, 63.
5.20000, 65.
5.34000, 63.
5.48000, 78.
5.62000, 59.
5.76000, 82.
5.90000, 558.
6.04000, 107.
6.18000, 149.
6.32000, 6980.
6.46000, 9477.
6.60000, 173.
6.74000, 107.
6.88000, 205.
7.02000, 2258.
7.16000, 707.
7.30000, 73.
7.44000, 68.
7.58000, 72.
7.72000, 65.
7.86000, 112.
8.00000, 146.
8.14000, 137.
8.28000, 99.
8.42000, 107.
8.56000, 158.
8.70000, 140.
8.84000, 113.
8.98000, 88.
9.12000, 122.
9.26000, 131.
9.40000, 110.
9.54000, 138.
9.68000, 131.
9.82000, 139.
9.96000, 125.
10.10000, 130.
10.24000, 124.
10.38000, 114.
10.52000, 144.
10.66000, 113.
10.80000, 119.
10.94000, 121.
11.08000, 108.
11.22000, 122.
11.36000, 144.
11.50000, 131.
11.64000, 148.
11.78000, 149.
11.92000, 162.
12.06000, 130.
12.20000, 135.
12.34000, 142.
12.48000, 126.
12.62000, 147.
12.76000, 167.
12.90000, 183.
13.04000, 132.
13.18000, 150.
13.32000, 204.
13.46000, 177.
13.60000, 138.
13.74000, 171.
13.88000, 142.
14.02000, 283.
14.16000, 412.
14.30000, 195.
14.44000, 124.
14.58000, 152.
14.72000, 156.
14.86000, 173.
15.00000, 163.
15.14000, 167.
15.28000, 178.
15.42000, 142.
15.56000, 272.
15.70000, 597.
15.84000, 456.
15.98000, 183.
16.12000, 163.
16.26000, 144.
16.40000, 147.
16.54000, 161.
16.68000, 162.
16.82000, 155.
16.96000, 161.
17.10000, 154.
17.24000, 172.
17.38000, 153.
17.52000, 200.
17.66000, 260.
17.80000, 220.
17.94000, 213.
18.08000, 254.
18.22000, 277.
18.36000, 369.
18.50000, 551.
18.64000, 797.
18.78000, 870.
18.92000, 824.
19.06000, 604.
19.20000, 381.
19.34000, 250.
19.48000, 242.
19.62000, 185.
19.76000, 182.
19.90000, 197.
20.04000, 459.
20.18000, 503.
20.32000, 252.
20.46000, 154.
20.60000, 166.
20.74000, 210.
20.88000, 218.
21.02000, 216.
21.16000, 214.
21.30000, 182.
21.44000, 151.
21.58000, 117.
21.72000, 112.
21.86000, 95.
22.00000, 87.
22.14000, 93.
22.28000, 69.
22.42000, 76.
22.56000, 121.
22.70000, 131.
22.84000, 110.
22.98000, 88.
23.12000, 80.
23.26000, 67.
23.40000, 74.
23.54000, 58.
23.68000, 75.
23.82000, 67.
23.96000, 71.
24.10000, 64.
24.24000, 69.
24.38000, 58.
24.52000, 54.
24.66000, 52.
24.80000, 74.
24.94000, 75.
25.08000, 84.
25.22000, 61.
25.36000, 58.
25.50000, 50.
25.64000, 53.
25.78000, 51.
25.92000, 65.
26.06000, 54.
26.20000, 56.
26.34000, 51.
26.48000, 56.
26.62000, 60.
26.76000, 47.
26.90000, 54.
27.04000, 42.
27.18000, 59.
27.32000, 47.
27.46000, 41.
27.60000, 56.
27.74000, 41.
27.88000, 41.
28.02000, 47.
28.16000, 44.
28.30000, 54.
28.44000, 53.
28.58000, 41.
28.72000, 48.
28.86000, 46.
29.00000, 44.
29.14000, 43.
29.28000, 38.
29.42000, 46.
29.56000, 32.
29.70000, 27.
29.84000, 39.
29.98000, 42.
30.12000, 35.
30.26000, 43.
30.40000, 26.
30.54000, 33.
30.68000, 31.
30.82000, 36.
30.96000, 38.
31.10000, 33.
31.24000, 32.
31.38000, 31.
31.52000, 33.
31.66000, 32.
31.80000, 35.
31.94000, 37.
32.08000, 40.
32.22000, 34.
32.36000, 27.
32.50000, 20.
32.64000, 37.
32.78000, 29.
32.92000, 19.
33.06000, 21.
33.20000, 26.
33.34000, 26.
33.48000, 20.
33.62000, 23.
33.76000, 24.
33.90000, 18.
34.04000, 16.
34.18000, 17.
34.32000, 15.
34.46000, 14.
34.60000, 15.
34.74000, 31.
34.88000, 16.
35.02000, 11.
35.16000, 11.
35.30000, 20.
35.44000, 12.
35.58000, 15.
35.72000, 14.
35.86000, 16.
36.00000, 12.
36.14000, 7.
36.28000, 12.
36.42000, 11.
36.56000, 14.
36.70000, 13.
36.84000, 9.
36.98000, 15.
37.12000, 7.
37.26000, 11.
37.40000, 9.
37.54000, 7.
37.68000, 10.
37.82000, 11.
37.96000, 7.
38.10000, 11.
38.24000, 12.
38.38000, 10.
38.52000, 8.
38.66000, 5.
38.80000, 9.
38.94000, 4.
39.08000, 7.
39.22000, 3.
39.36000, 7.
39.50000, 9.
39.64000, 5.
39.78000, 5.
39.92000, 6.
40.06000, 5.
40.20000, 7.
40.34000, 6.
40.48000, 1.
40.55000, 0.
#ENDOFDATA   :