File: sample_data/data/Spectrum value from standard/Till 1/Spectrum 1, till 1.txt
#FORMAT      : EMSA/MAS Spectral Data File
#VERSION     : 1.0
#TITLE       : Spectrum 1
#DATE        : 21-AUG-2025
#TIME        : 15:05
#OWNER       : XGT7200
#NPOINTS     : 4096.
#NCOLUMNS    : 1.
#XUNITS      : keV
#YUNITS      : counts
#DATATYPE    : XY
#XPERCHAN    : 0.0100000
#OFFSET      : -0.400000
#SIGNALTYPE  : EDS
#CHOFFSET    : 40.0000
#LIVETIME    : 30
#REALTIME    : 39.5988
#BEAMKV      : 50.0000
#PROBECUR    : 733000.
#MAGCAM      : 100.000
#XTILTSTGE   : 0.0
#AZIMANGLE   : 0.0
#ELEVANGLE   : 45.0
#XPOSITION mm: 0.0000
#YPOSITION mm: 0.0000
#ZPOSITION mm: 0.0000
##OXINSTPT   : 4
##OXINSTSTROB: 71.96
#SPECTRUM    : Spectral Data Starts Here
-0.40000, 0.
-0.26000, 0.
-0.12000, 0.
0.02000, 0.
0.16000, 0.
0.30000, 0.
0.44000, 32.
0.58000, 37.
0.72000, 35.
0.86000, 35.
1.00000, 45.
1.14000, 42.
1.28000, 63.
1.42000, 189.
1.56000, 259.
1.70000, 3523.
1.84000, 734.
1.98000, 78.
2.12000, 28.
2.26000, 38.
2.40000, 32.
2.54000, 37.
2.68000, 385.
2.82000, 314.
2.96000, 79.
3.10000, 36.
3.24000, 266.
3.38000, 397.
3.52000, 68.
3.66000, 962.
3.80000, 185.
3.94000, 82.
4.08000, 113.
4.22000, 32.
4.36000, 51.
4.50000, 650.
4.64000, 138.
4.78000, 73.
4.92000, 149.
5.06000, 59.
5.20000, 53.
5.34000, 66.
5.48000, 68.
5.62000, 58.
5.76000, 87.
5.90000, 459.
6.04000, 90.
6.18000, 134.
6.32000, 6911.
6.46000, 9771.
6.60000, 207.
6.74000, 94.
6.88000, 216.
7.02000, 2212.
7.16000, 724.
7.30000, 85.
7.44000, 91.
7.58000, 74.
7.72000, 81.
7.86000, 103.
8.00000, 116.
8.14000, 137.
8.28000, 92.
8.42000, 107.
8.56000, 137.
8.70000, 137.
8.84000, 128.
8.98000, 126.
9.12000, 124.
9.26000, 119.
9.40000, 122.
9.54000, 133.
9.68000, 122.
9.82000, 136.
9.96000, 136.
10.10000, 135.
10.24000, 133.
10.38000, 125.
10.52000, 146.
10.66000, 136.
10.80000, 108.
10.94000, 138.
11.08000, 118.
11.22000, 122.
11.36000, 125.
11.50000, 135.
11.64000, 157.
11.78000, 141.
11.92000, 144.
12.06000, 143.
12.20000, 144.
12.34000, 146.
12.48000, 136.
12.62000, 164.
12.76000, 168.
12.90000, 179.
13.04000, 154.
13.18000, 166.
13.32000, 172.
13.46000, 174.
13.60000, 147.
13.74000, 177.
13.88000, 145.
14.02000, 278.
14.16000, 377.
14.30000, 192.
14.44000, 140.
14.58000, 147.
14.72000, 144.
14.86000, 186.
15.00000, 180.
15.14000, 151.
15.28000, 152.
15.42000, 150.
15.56000, 227.
15.70000, 527.
15.84000, 341.
15.98000, 175.
16.12000, 141.
16.26000, 146.
16.40000, 139.
16.54000, 151.
16.68000, 134.
16.82000, 130.
16.96000, 146.
17.10000, 170.
17.24000, 140.
17.38000, 163.
17.52000, 198.
17.66000, 217.
17.80000, 204.
17.94000, 215.
18.08000, 259.
18.22000, 270.
18.36000, 362.
18.50000, 578.
18.64000, 772.
18.78000, 901.
18.92000, 794.
19.06000, 591.
19.20000, 425.
19.34000, 304.
19.48000, 215.
19.62000, 205.
19.76000, 165.
19.90000, 219.
20.04000, 430.
20.18000, 514.
20.32000, 268.
20.46000, 146.
20.60000, 152.
20.74000, 195.
20.88000, 211.
21.02000, 231.
21.16000, 199.
21.30000, 198.
21.44000, 160.
21.58000, 144.
21.72000, 112.
21.86000, 101.
22.00000, 96.
22.14000, 86.
22.28000, 90.
22.42000, 83.
22.56000, 107.
22.70000, 134.
22.84000, 80.
22.98000, 71.
23.12000, 83.
23.26000, 66.
23.40000, 61.
23.54000, 55.
23.68000, 61.
23.82000, 57.
23.96000, 73.
24.10000, 60.
24.24000, 72.
24.38000, 60.
24.52000, 67.
24.66000, 62.
24.80000, 63.
24.94000, 59.
25.08000, 71.
25.22000, 69.
25.36000, 52.
25.50000, 45.
25.64000, 46.
25.78000, 69.
25.92000, 55.
26.06000, 64.
26.20000, 51.
26.34000, 62.
26.48000, 52.
26.62000, 62.
26.76000, 46.
26.90000, 53.
27.04000, 37.
27.18000, 43.
27.32000, 63.
27.46000, 57.
27.60000, 47.
27.74000, 29.
27.88000, 45.
28.02000, 60.
28.16000, 50.
28.30000, 36.
28.44000, 61.
28.58000, 43.
28.72000, 37.
28.86000, 41.
29.00000, 49.
29.14000, 30.
29.28000, 46.
29.42000, 39.
29.56000, 35.
29.70000, 41.
29.84000, 32.
29.98000, 40.
30.12000, 40.
30.26000, 24.
30.40000, 20.
30.54000, 25.
30.68000, 27.
30.82000, 34.
30.96000, 29.
31.10000, 26.
31.24000, 25.
31.38000, 42.
31.52000, 25.
31.66000, 33.
31.80000, 28.
31.94000, 24.
32.08000, 27.
32.22000, 33.
32.36000, 29.
32.50000, 25.
32.64000, 24.
32.78000, 21.
32.92000, 24.
33.06000, 30.
33.20000, 26.
33.34000, 15.
33.48000, 23.
33.62000, 24.
33.76000, 18.
33.90000, 22.
34.04000, 23.
34.18000, 20.
34.32000, 20.
34.46000, 18.
34.60000, 11.
34.74000, 17.
34.88000, 14.
35.02000, 10.
35.16000, 16.
35.30000, 11.
35.44000, 14.
35.58000, 20.
35.72000, 16.
35.86000, 12.
36.00000, 13.
36.14000, 12.
36.28000, 16.
36.42000, 15.
36.56000, 12.
36.70000, 11.
36.84000, 12.
36.98000, 12.
37.12000, 13.
37.26000, 14.
37.40000, 6.
37.54000, 5.
37.68000, 13.
37.82000, 16.
37.96000, 10.
38.10000, 10.
38.24000, 12.
38.38000, 4.
38.52000, 9.
38.66000, 7.
38.80000, 4.
38.94000, 10.
39.08000, 5.
39.22000, 3.
39.36000, 5.
39.50000, 12.
39.64000, 10.
39.78000, 10.
39.92000, 5.
40.06000, 4.
40.20000, 4.
40.34000, 5.
40.48000, 2.
40.55000, 0.
#ENDOFDATA   :