File: sample_data/data/Spectrum value from standard/Till 1/Spectrum 3.txt
#FORMAT      : EMSA/MAS Spectral Data File
#VERSION     : 1.0
#TITLE       : Spectrum 3
#DATE        : 21-AUG-2025
#TIME        : 15:07
#OWNER       : XGT7200
#NPOINTS     : 4096.
#NCOLUMNS    : 1.
#XUNITS      : keV
#YUNITS      : counts
#DATATYPE    : XY
#XPERCHAN    : 0.0100000
#OFFSET      : -0.400000
#SIGNALTYPE  : EDS
#CHOFFSET    : 40.0000
#LIVETIME    : 30
#REALTIME    : 39.5898
#BEAMKV      : 50.0000
#PROBECUR    : 703000.
#MAGCAM      : 100.000
#XTILTSTGE   : 0.0
#AZIMANGLE   : 0.0
#ELEVANGLE   : 45.0
#XPOSITION mm: 0.0000
#YPOSITION mm: 0.0000
#ZPOSITION mm: 0.0000
##OXINSTPT   : 4
##OXINSTSTROB: 72.34
#SPECTRUM    : Spectral Data Starts Here
-0.40000, 0.
-0.26000, 0.
-0.12000, 0.
0.02000, 0.
0.16000, 0.
0.30000, 0.
0.44000, 41.
0.58000, 34.
0.72000, 38.
0.86000, 48.
1.00000, 51.
1.14000, 46.
1.28000, 63.
1.42000, 193.
1.56000, 261.
1.70000, 3536.
1.84000, 780.
1.98000, 71.
2.12000, 38.
2.26000, 41.
2.40000, 29.
2.54000, 38.
2.68000, 406.
2.82000, 258.
2.96000, 103.
3.10000, 21.
3.24000, 257.
3.38000, 364.
3.52000, 82.
3.66000, 1069.
3.80000, 182.
3.94000, 92.
4.08000, 115.
4.22000, 22.
4.36000, 55.
4.50000, 826.
4.64000, 151.
4.78000, 57.
4.92000, 195.
5.06000, 52.
5.20000, 62.
5.34000, 74.
5.48000, 56.
5.62000, 56.
5.76000, 68.
5.90000, 461.
6.04000, 94.
6.18000, 155.
6.32000, 7107.
6.46000, 9657.
6.60000, 208.
6.74000, 106.
6.88000, 250.
7.02000, 2290.
7.16000, 670.
7.30000, 68.
7.44000, 78.
7.58000, 72.
7.72000, 69.
7.86000, 92.
8.00000, 128.
8.14000, 132.
8.28000, 109.
8.42000, 106.
8.56000, 145.
8.70000, 136.
8.84000, 128.
8.98000, 98.
9.12000, 117.
9.26000, 131.
9.40000, 127.
9.54000, 138.
9.68000, 139.
9.82000, 113.
9.96000, 113.
10.10000, 125.
10.24000, 132.
10.38000, 118.
10.52000, 165.
10.66000, 128.
10.80000, 137.
10.94000, 129.
11.08000, 117.
11.22000, 144.
11.36000, 147.
11.50000, 138.
11.64000, 136.
11.78000, 135.
11.92000, 141.
12.06000, 131.
12.20000, 138.
12.34000, 121.
12.48000, 129.
12.62000, 149.
12.76000, 168.
12.90000, 168.
13.04000, 128.
13.18000, 142.
13.32000, 177.
13.46000, 182.
13.60000, 146.
13.74000, 185.
13.88000, 154.
14.02000, 313.
14.16000, 389.
14.30000, 175.
14.44000, 149.
14.58000, 160.
14.72000, 144.
14.86000, 184.
15.00000, 179.
15.14000, 166.
15.28000, 137.
15.42000, 148.
15.56000, 224.
15.70000, 518.
15.84000, 417.
15.98000, 190.
16.12000, 119.
16.26000, 154.
16.40000, 99.
16.54000, 137.
16.68000, 164.
16.82000, 124.
16.96000, 146.
17.10000, 152.
17.24000, 142.
17.38000, 150.
17.52000, 218.
17.66000, 239.
17.80000, 204.
17.94000, 230.
18.08000, 215.
18.22000, 289.
18.36000, 385.
18.50000, 543.
18.64000, 760.
18.78000, 857.
18.92000, 793.
19.06000, 595.
19.20000, 421.
19.34000, 275.
19.48000, 221.
19.62000, 170.
19.76000, 167.
19.90000, 236.
20.04000, 393.
20.18000, 508.
20.32000, 267.
20.46000, 151.
20.60000, 164.
20.74000, 187.
20.88000, 242.
21.02000, 221.
21.16000, 188.
21.30000, 189.
21.44000, 151.
21.58000, 125.
21.72000, 121.
21.86000, 95.
22.00000, 94.
22.14000, 73.
22.28000, 78.
22.42000, 89.
22.56000, 107.
22.70000, 148.
22.84000, 93.
22.98000, 86.
23.12000, 69.
23.26000, 65.
23.40000, 59.
23.54000, 70.
23.68000, 61.
23.82000, 62.
23.96000, 67.
24.10000, 58.
24.24000, 53.
24.38000, 67.
24.52000, 52.
24.66000, 76.
24.80000, 57.
24.94000, 69.
25.08000, 69.
25.22000, 66.
25.36000, 51.
25.50000, 55.
25.64000, 68.
25.78000, 46.
25.92000, 66.
26.06000, 62.
26.20000, 58.
26.34000, 52.
26.48000, 48.
26.62000, 46.
26.76000, 38.
26.90000, 45.
27.04000, 45.
27.18000, 42.
27.32000, 52.
27.46000, 49.
27.60000, 46.
27.74000, 41.
27.88000, 44.
28.02000, 38.
28.16000, 31.
28.30000, 37.
28.44000, 42.
28.58000, 42.
28.72000, 31.
28.86000, 38.
29.00000, 36.
29.14000, 43.
29.28000, 36.
29.42000, 39.
29.56000, 41.
29.70000, 36.
29.84000, 42.
29.98000, 27.
30.12000, 30.
30.26000, 31.
30.40000, 33.
30.54000, 30.
30.68000, 34.
30.82000, 22.
30.96000, 22.
31.10000, 24.
31.24000, 35.
31.38000, 30.
31.52000, 28.
31.66000, 28.
31.80000, 36.
31.94000, 30.
32.08000, 30.
32.22000, 21.
32.36000, 30.
32.50000, 16.
32.64000, 21.
32.78000, 18.
32.92000, 28.
33.06000, 20.
33.20000, 18.
33.34000, 24.
33.48000, 25.
33.62000, 19.
33.76000, 13.
33.90000, 9.
34.04000, 14.
34.18000, 23.
34.32000, 22.
34.46000, 18.
34.60000, 16.
34.74000, 11.
34.88000, 16.
35.02000, 15.
35.16000, 20.
35.30000, 16.
35.44000, 14.
35.58000, 19.
35.72000, 20.
35.86000, 15.
36.00000, 14.
36.14000, 8.
36.28000, 19.
36.42000, 12.
36.56000, 16.
36.70000, 9.
36.84000, 9.
36.98000, 9.
37.12000, 14.
37.26000, 12.
37.40000, 13.
37.54000, 10.
37.68000, 8.
37.82000, 7.
37.96000, 11.
38.10000, 12.
38.24000, 15.
38.38000, 9.
38.52000, 8.
38.66000, 8.
38.80000, 6.
38.94000, 14.
39.08000, 7.
39.22000, 2.
39.36000, 9.
39.50000, 4.
39.64000, 6.
39.78000, 6.
39.92000, 4.
40.06000, 5.
40.20000, 4.
40.34000, 3.
40.48000, 3.
40.55000, 0.
#ENDOFDATA   :