File: sample_data/data/Spectrum value from standard/LKSD1/Spectrum 11.txt
#FORMAT      : EMSA/MAS Spectral Data File
#VERSION     : 1.0
#TITLE       : Spectrum 11
#DATE        : 21-AUG-2025
#TIME        : 15:15
#OWNER       : XGT7200
#NPOINTS     : 4096.
#NCOLUMNS    : 1.
#XUNITS      : keV
#YUNITS      : counts
#DATATYPE    : XY
#XPERCHAN    : 0.0100000
#OFFSET      : -0.400000
#SIGNALTYPE  : EDS
#CHOFFSET    : 40.0000
#LIVETIME    : 30
#REALTIME    : 39.5634
#BEAMKV      : 50.0000
#PROBECUR    : 717000.
#MAGCAM      : 100.000
#XTILTSTGE   : 0.0
#AZIMANGLE   : 0.0
#ELEVANGLE   : 45.0
#XPOSITION mm: 0.0000
#YPOSITION mm: 0.0000
#ZPOSITION mm: 0.0000
##OXINSTPT   : 4
##OXINSTSTROB: 72.01
#SPECTRUM    : Spectral Data Starts Here
-0.40000, 0.
-0.26000, 0.
-0.12000, 0.
0.02000, 0.
0.16000, 0.
0.30000, 0.
0.44000, 54.
0.58000, 72.
0.72000, 46.
0.86000, 38.
1.00000, 50.
1.14000, 37.
1.28000, 69.
1.42000, 127.
1.56000, 157.
1.70000, 2414.
1.84000, 586.
1.98000, 138.
2.12000, 49.
2.26000, 830.
2.40000, 274.
2.54000, 103.
2.68000, 464.
2.82000, 353.
2.96000, 114.
3.10000, 39.
3.24000, 188.
3.38000, 259.
3.52000, 116.
3.66000, 5736.
3.80000, 883.
3.94000, 392.
4.08000, 531.
4.22000, 24.
4.36000, 28.
4.50000, 344.
4.64000, 97.
4.78000, 54.
4.92000, 91.
5.06000, 33.
5.20000, 45.
5.34000, 53.
5.48000, 61.
5.62000, 57.
5.76000, 77.
5.90000, 245.
6.04000, 99.
6.18000, 95.
6.32000, 4283.
6.46000, 6109.
6.60000, 141.
6.74000, 101.
6.88000, 161.
7.02000, 1468.
7.16000, 468.
7.30000, 89.
7.44000, 88.
7.58000, 71.
7.72000, 76.
7.86000, 95.
8.00000, 116.
8.14000, 116.
8.28000, 107.
8.42000, 113.
8.56000, 224.
8.70000, 229.
8.84000, 116.
8.98000, 113.
9.12000, 150.
9.26000, 127.
9.40000, 125.
9.54000, 164.
9.68000, 136.
9.82000, 124.
9.96000, 142.
10.10000, 147.
10.24000, 145.
10.38000, 161.
10.52000, 195.
10.66000, 150.
10.80000, 131.
10.94000, 163.
11.08000, 140.
11.22000, 158.
11.36000, 159.
11.50000, 167.
11.64000, 173.
11.78000, 158.
11.92000, 204.
12.06000, 165.
12.20000, 162.
12.34000, 177.
12.48000, 177.
12.62000, 194.
12.76000, 178.
12.90000, 183.
13.04000, 189.
13.18000, 168.
13.32000, 191.
13.46000, 183.
13.60000, 181.
13.74000, 160.
13.88000, 184.
14.02000, 332.
14.16000, 427.
14.30000, 192.
14.44000, 133.
14.58000, 175.
14.72000, 172.
14.86000, 209.
15.00000, 188.
15.14000, 147.
15.28000, 168.
15.42000, 174.
15.56000, 209.
15.70000, 371.
15.84000, 329.
15.98000, 182.
16.12000, 159.
16.26000, 164.
16.40000, 182.
16.54000, 174.
16.68000, 179.
16.82000, 181.
16.96000, 155.
17.10000, 178.
17.24000, 189.
17.38000, 194.
17.52000, 213.
17.66000, 248.
17.80000, 202.
17.94000, 228.
18.08000, 231.
18.22000, 316.
18.36000, 408.
18.50000, 647.
18.64000, 871.
18.78000, 966.
18.92000, 955.
19.06000, 727.
19.20000, 456.
19.34000, 333.
19.48000, 275.
19.62000, 209.
19.76000, 164.
19.90000, 247.
20.04000, 485.
20.18000, 561.
20.32000, 309.
20.46000, 194.
20.60000, 187.
20.74000, 224.
20.88000, 253.
21.02000, 293.
21.16000, 245.
21.30000, 221.
21.44000, 171.
21.58000, 139.
21.72000, 136.
21.86000, 121.
22.00000, 104.
22.14000, 110.
22.28000, 100.
22.42000, 112.
22.56000, 117.
22.70000, 128.
22.84000, 112.
22.98000, 90.
23.12000, 69.
23.26000, 93.
23.40000, 83.
23.54000, 74.
23.68000, 93.
23.82000, 60.
23.96000, 77.
24.10000, 68.
24.24000, 82.
24.38000, 93.
24.52000, 69.
24.66000, 62.
24.80000, 78.
24.94000, 67.
25.08000, 68.
25.22000, 99.
25.36000, 67.
25.50000, 64.
25.64000, 72.
25.78000, 67.
25.92000, 71.
26.06000, 68.
26.20000, 58.
26.34000, 61.
26.48000, 52.
26.62000, 67.
26.76000, 45.
26.90000, 49.
27.04000, 49.
27.18000, 49.
27.32000, 57.
27.46000, 58.
27.60000, 47.
27.74000, 52.
27.88000, 45.
28.02000, 44.
28.16000, 48.
28.30000, 51.
28.44000, 48.
28.58000, 46.
28.72000, 48.
28.86000, 44.
29.00000, 39.
29.14000, 36.
29.28000, 35.
29.42000, 41.
29.56000, 38.
29.70000, 38.
29.84000, 38.
29.98000, 38.
30.12000, 25.
30.26000, 34.
30.40000, 41.
30.54000, 35.
30.68000, 41.
30.82000, 37.
30.96000, 30.
31.10000, 32.
31.24000, 37.
31.38000, 33.
31.52000, 40.
31.66000, 39.
31.80000, 35.
31.94000, 40.
32.08000, 32.
32.22000, 29.
32.36000, 28.
32.50000, 29.
32.64000, 31.
32.78000, 28.
32.92000, 30.
33.06000, 25.
33.20000, 26.
33.34000, 24.
33.48000, 18.
33.62000, 24.
33.76000, 23.
33.90000, 13.
34.04000, 27.
34.18000, 25.
34.32000, 22.
34.46000, 29.
34.60000, 25.
34.74000, 22.
34.88000, 22.
35.02000, 16.
35.16000, 23.
35.30000, 21.
35.44000, 15.
35.58000, 17.
35.72000, 14.
35.86000, 21.
36.00000, 14.
36.14000, 23.
36.28000, 16.
36.42000, 20.
36.56000, 13.
36.70000, 12.
36.84000, 11.
36.98000, 9.
37.12000, 8.
37.26000, 6.
37.40000, 8.
37.54000, 16.
37.68000, 14.
37.82000, 15.
37.96000, 10.
38.10000, 12.
38.24000, 14.
38.38000, 9.
38.52000, 11.
38.66000, 9.
38.80000, 5.
38.94000, 4.
39.08000, 4.
39.22000, 2.
39.36000, 7.
39.50000, 5.
39.64000, 7.
39.78000, 4.
39.92000, 5.
40.06000, 7.
40.20000, 7.
40.34000, 5.
40.48000, 3.
40.55000, 0.
#ENDOFDATA   :