File: sample_data/data/Spectrum value from standard/LKSD1/Spectrum 10, LKSD 1.txt
#FORMAT      : EMSA/MAS Spectral Data File
#VERSION     : 1.0
#TITLE       : Spectrum 10
#DATE        : 21-AUG-2025
#TIME        : 15:14
#OWNER       : XGT7200
#NPOINTS     : 4096.
#NCOLUMNS    : 1.
#XUNITS      : keV
#YUNITS      : counts
#DATATYPE    : XY
#XPERCHAN    : 0.0100000
#OFFSET      : -0.400000
#SIGNALTYPE  : EDS
#CHOFFSET    : 40.0000
#LIVETIME    : 30
#REALTIME    : 39.3804
#BEAMKV      : 50.0000
#PROBECUR    : 706000.
#MAGCAM      : 100.000
#XTILTSTGE   : 0.0
#AZIMANGLE   : 0.0
#ELEVANGLE   : 45.0
#XPOSITION mm: 0.0000
#YPOSITION mm: 0.0000
#ZPOSITION mm: 0.0000
##OXINSTPT   : 4
##OXINSTSTROB: 72.00
#SPECTRUM    : Spectral Data Starts Here
-0.40000, 0.
-0.26000, 0.
-0.12000, 0.
0.02000, 0.
0.16000, 0.
0.30000, 0.
0.44000, 49.
0.58000, 66.
0.72000, 51.
0.86000, 37.
1.00000, 60.
1.14000, 48.
1.28000, 72.
1.42000, 136.
1.56000, 147.
1.70000, 2681.
1.84000, 618.
1.98000, 113.
2.12000, 39.
2.26000, 809.
2.40000, 257.
2.54000, 95.
2.68000, 604.
2.82000, 340.
2.96000, 96.
3.10000, 46.
3.24000, 195.
3.38000, 269.
3.52000, 113.
3.66000, 5114.
3.80000, 807.
3.94000, 350.
4.08000, 482.
4.22000, 32.
4.36000, 39.
4.50000, 267.
4.64000, 83.
4.78000, 58.
4.92000, 95.
5.06000, 44.
5.20000, 54.
5.34000, 65.
5.48000, 69.
5.62000, 69.
5.76000, 64.
5.90000, 230.
6.04000, 73.
6.18000, 119.
6.32000, 4243.
6.46000, 6109.
6.60000, 136.
6.74000, 90.
6.88000, 157.
7.02000, 1372.
7.16000, 492.
7.30000, 94.
7.44000, 73.
7.58000, 82.
7.72000, 82.
7.86000, 91.
8.00000, 124.
8.14000, 147.
8.28000, 103.
8.42000, 104.
8.56000, 226.
8.70000, 191.
8.84000, 114.
8.98000, 123.
9.12000, 129.
9.26000, 132.
9.40000, 130.
9.54000, 146.
9.68000, 163.
9.82000, 145.
9.96000, 135.
10.10000, 154.
10.24000, 135.
10.38000, 158.
10.52000, 199.
10.66000, 181.
10.80000, 147.
10.94000, 140.
11.08000, 161.
11.22000, 167.
11.36000, 161.
11.50000, 168.
11.64000, 158.
11.78000, 160.
11.92000, 166.
12.06000, 161.
12.20000, 154.
12.34000, 188.
12.48000, 178.
12.62000, 171.
12.76000, 182.
12.90000, 182.
13.04000, 169.
13.18000, 202.
13.32000, 199.
13.46000, 177.
13.60000, 171.
13.74000, 189.
13.88000, 176.
14.02000, 334.
14.16000, 478.
14.30000, 223.
14.44000, 160.
14.58000, 161.
14.72000, 176.
14.86000, 191.
15.00000, 168.
15.14000, 163.
15.28000, 168.
15.42000, 152.
15.56000, 189.
15.70000, 282.
15.84000, 276.
15.98000, 187.
16.12000, 175.
16.26000, 162.
16.40000, 158.
16.54000, 163.
16.68000, 175.
16.82000, 153.
16.96000, 170.
17.10000, 180.
17.24000, 172.
17.38000, 170.
17.52000, 196.
17.66000, 195.
17.80000, 228.
17.94000, 235.
18.08000, 248.
18.22000, 281.
18.36000, 420.
18.50000, 634.
18.64000, 924.
18.78000, 1069.
18.92000, 999.
19.06000, 715.
19.20000, 539.
19.34000, 349.
19.48000, 236.
19.62000, 230.
19.76000, 156.
19.90000, 228.
20.04000, 516.
20.18000, 584.
20.32000, 300.
20.46000, 193.
20.60000, 203.
20.74000, 213.
20.88000, 292.
21.02000, 268.
21.16000, 282.
21.30000, 217.
21.44000, 181.
21.58000, 145.
21.72000, 115.
21.86000, 111.
22.00000, 111.
22.14000, 88.
22.28000, 82.
22.42000, 105.
22.56000, 132.
22.70000, 160.
22.84000, 108.
22.98000, 100.
23.12000, 94.
23.26000, 62.
23.40000, 76.
23.54000, 74.
23.68000, 81.
23.82000, 66.
23.96000, 73.
24.10000, 84.
24.24000, 68.
24.38000, 85.
24.52000, 66.
24.66000, 66.
24.80000, 94.
24.94000, 80.
25.08000, 78.
25.22000, 66.
25.36000, 67.
25.50000, 66.
25.64000, 71.
25.78000, 58.
25.92000, 75.
26.06000, 56.
26.20000, 64.
26.34000, 50.
26.48000, 65.
26.62000, 47.
26.76000, 59.
26.90000, 53.
27.04000, 56.
27.18000, 53.
27.32000, 45.
27.46000, 48.
27.60000, 58.
27.74000, 54.
27.88000, 64.
28.02000, 55.
28.16000, 45.
28.30000, 38.
28.44000, 47.
28.58000, 46.
28.72000, 51.
28.86000, 51.
29.00000, 41.
29.14000, 41.
29.28000, 37.
29.42000, 32.
29.56000, 56.
29.70000, 34.
29.84000, 51.
29.98000, 38.
30.12000, 26.
30.26000, 28.
30.40000, 28.
30.54000, 27.
30.68000, 33.
30.82000, 29.
30.96000, 36.
31.10000, 30.
31.24000, 31.
31.38000, 36.
31.52000, 30.
31.66000, 23.
31.80000, 25.
31.94000, 35.
32.08000, 25.
32.22000, 32.
32.36000, 30.
32.50000, 33.
32.64000, 29.
32.78000, 21.
32.92000, 27.
33.06000, 27.
33.20000, 26.
33.34000, 27.
33.48000, 18.
33.62000, 13.
33.76000, 18.
33.90000, 22.
34.04000, 17.
34.18000, 17.
34.32000, 21.
34.46000, 30.
34.60000, 20.
34.74000, 25.
34.88000, 12.
35.02000, 17.
35.16000, 19.
35.30000, 15.
35.44000, 18.
35.58000, 22.
35.72000, 16.
35.86000, 12.
36.00000, 13.
36.14000, 19.
36.28000, 13.
36.42000, 14.
36.56000, 10.
36.70000, 12.
36.84000, 10.
36.98000, 9.
37.12000, 8.
37.26000, 12.
37.40000, 9.
37.54000, 9.
37.68000, 10.
37.82000, 17.
37.96000, 5.
38.10000, 10.
38.24000, 5.
38.38000, 12.
38.52000, 7.
38.66000, 6.
38.80000, 9.
38.94000, 6.
39.08000, 9.
39.22000, 5.
39.36000, 10.
39.50000, 8.
39.64000, 7.
39.78000, 10.
39.92000, 6.
40.06000, 7.
40.20000, 2.
40.34000, 6.
40.48000, 2.
40.55000, 0.
#ENDOFDATA   :