File: sample_data/data/Spectrum value from standard/LKSD1/Spectrum 8.txt
#FORMAT      : EMSA/MAS Spectral Data File
#VERSION     : 1.0
#TITLE       : Spectrum 8
#DATE        : 21-AUG-2025
#TIME        : 15:12
#OWNER       : XGT7200
#NPOINTS     : 4096.
#NCOLUMNS    : 1.
#XUNITS      : keV
#YUNITS      : counts
#DATATYPE    : XY
#XPERCHAN    : 0.0100000
#OFFSET      : -0.400000
#SIGNALTYPE  : EDS
#CHOFFSET    : 40.0000
#LIVETIME    : 30
#REALTIME    : 39.6359
#BEAMKV      : 50.0000
#PROBECUR    : 729000.
#MAGCAM      : 100.000
#XTILTSTGE   : 0.0
#AZIMANGLE   : 0.0
#ELEVANGLE   : 45.0
#XPOSITION mm: 0.0000
#YPOSITION mm: 0.0000
#ZPOSITION mm: 0.0000
##OXINSTPT   : 4
##OXINSTSTROB: 72.00
#SPECTRUM    : Spectral Data Starts Here
-0.40000, 0.
-0.26000, 0.
-0.12000, 0.
0.02000, 0.
0.16000, 0.
0.30000, 0.
0.44000, 48.
0.58000, 52.
0.72000, 53.
0.86000, 41.
1.00000, 55.
1.14000, 52.
1.28000, 68.
1.42000, 111.
1.56000, 148.
1.70000, 2443.
1.84000, 582.
1.98000, 108.
2.12000, 59.
2.26000, 847.
2.40000, 314.
2.54000, 102.
2.68000, 484.
2.82000, 371.
2.96000, 129.
3.10000, 38.
3.24000, 171.
3.38000, 216.
3.52000, 114.
3.66000, 5827.
3.80000, 887.
3.94000, 391.
4.08000, 507.
4.22000, 28.
4.36000, 45.
4.50000, 427.
4.64000, 85.
4.78000, 56.
4.92000, 130.
5.06000, 38.
5.20000, 44.
5.34000, 52.
5.48000, 60.
5.62000, 63.
5.76000, 58.
5.90000, 232.
6.04000, 91.
6.18000, 134.
6.32000, 4389.
6.46000, 6062.
6.60000, 150.
6.74000, 102.
6.88000, 147.
7.02000, 1428.
7.16000, 484.
7.30000, 92.
7.44000, 100.
7.58000, 65.
7.72000, 81.
7.86000, 90.
8.00000, 114.
8.14000, 124.
8.28000, 117.
8.42000, 103.
8.56000, 268.
8.70000, 246.
8.84000, 139.
8.98000, 132.
9.12000, 115.
9.26000, 146.
9.40000, 143.
9.54000, 168.
9.68000, 140.
9.82000, 169.
9.96000, 155.
10.10000, 153.
10.24000, 154.
10.38000, 149.
10.52000, 192.
10.66000, 142.
10.80000, 178.
10.94000, 156.
11.08000, 132.
11.22000, 135.
11.36000, 162.
11.50000, 163.
11.64000, 154.
11.78000, 167.
11.92000, 198.
12.06000, 154.
12.20000, 177.
12.34000, 190.
12.48000, 184.
12.62000, 180.
12.76000, 177.
12.90000, 197.
13.04000, 181.
13.18000, 172.
13.32000, 216.
13.46000, 213.
13.60000, 174.
13.74000, 191.
13.88000, 150.
14.02000, 341.
14.16000, 446.
14.30000, 211.
14.44000, 165.
14.58000, 190.
14.72000, 168.
14.86000, 190.
15.00000, 190.
15.14000, 205.
15.28000, 189.
15.42000, 169.
15.56000, 183.
15.70000, 273.
15.84000, 237.
15.98000, 172.
16.12000, 169.
16.26000, 174.
16.40000, 171.
16.54000, 171.
16.68000, 159.
16.82000, 170.
16.96000, 165.
17.10000, 169.
17.24000, 201.
17.38000, 209.
17.52000, 186.
17.66000, 208.
17.80000, 227.
17.94000, 218.
18.08000, 266.
18.22000, 310.
18.36000, 448.
18.50000, 645.
18.64000, 916.
18.78000, 1048.
18.92000, 934.
19.06000, 735.
19.20000, 495.
19.34000, 314.
19.48000, 266.
19.62000, 202.
19.76000, 180.
19.90000, 257.
20.04000, 458.
20.18000, 579.
20.32000, 302.
20.46000, 170.
20.60000, 185.
20.74000, 214.
20.88000, 216.
21.02000, 310.
21.16000, 272.
21.30000, 234.
21.44000, 171.
21.58000, 157.
21.72000, 114.
21.86000, 124.
22.00000, 87.
22.14000, 77.
22.28000, 91.
22.42000, 125.
22.56000, 116.
22.70000, 150.
22.84000, 105.
22.98000, 87.
23.12000, 109.
23.26000, 85.
23.40000, 81.
23.54000, 62.
23.68000, 62.
23.82000, 73.
23.96000, 66.
24.10000, 65.
24.24000, 75.
24.38000, 80.
24.52000, 85.
24.66000, 69.
24.80000, 70.
24.94000, 80.
25.08000, 67.
25.22000, 66.
25.36000, 67.
25.50000, 61.
25.64000, 42.
25.78000, 68.
25.92000, 55.
26.06000, 63.
26.20000, 58.
26.34000, 65.
26.48000, 66.
26.62000, 47.
26.76000, 52.
26.90000, 53.
27.04000, 65.
27.18000, 65.
27.32000, 67.
27.46000, 45.
27.60000, 51.
27.74000, 48.
27.88000, 54.
28.02000, 45.
28.16000, 48.
28.30000, 49.
28.44000, 52.
28.58000, 42.
28.72000, 40.
28.86000, 42.
29.00000, 45.
29.14000, 45.
29.28000, 38.
29.42000, 32.
29.56000, 44.
29.70000, 35.
29.84000, 45.
29.98000, 34.
30.12000, 39.
30.26000, 52.
30.40000, 36.
30.54000, 51.
30.68000, 29.
30.82000, 30.
30.96000, 36.
31.10000, 42.
31.24000, 30.
31.38000, 29.
31.52000, 37.
31.66000, 26.
31.80000, 39.
31.94000, 32.
32.08000, 26.
32.22000, 39.
32.36000, 24.
32.50000, 34.
32.64000, 30.
32.78000, 28.
32.92000, 26.
33.06000, 29.
33.20000, 27.
33.34000, 25.
33.48000, 15.
33.62000, 14.
33.76000, 15.
33.90000, 26.
34.04000, 11.
34.18000, 10.
34.32000, 14.
34.46000, 21.
34.60000, 15.
34.74000, 19.
34.88000, 18.
35.02000, 18.
35.16000, 18.
35.30000, 15.
35.44000, 25.
35.58000, 16.
35.72000, 19.
35.86000, 21.
36.00000, 13.
36.14000, 12.
36.28000, 12.
36.42000, 11.
36.56000, 14.
36.70000, 10.
36.84000, 14.
36.98000, 17.
37.12000, 9.
37.26000, 13.
37.40000, 13.
37.54000, 10.
37.68000, 11.
37.82000, 13.
37.96000, 14.
38.10000, 8.
38.24000, 12.
38.38000, 4.
38.52000, 7.
38.66000, 7.
38.80000, 4.
38.94000, 8.
39.08000, 6.
39.22000, 6.
39.36000, 7.
39.50000, 3.
39.64000, 8.
39.78000, 5.
39.92000, 8.
40.06000, 9.
40.20000, 6.
40.34000, 3.
40.48000, 3.
40.55000, 0.
#ENDOFDATA   :