File: sample_data/data/Spectrum value from standard/LKSD1/Spectrum 7, LKSD 1.txt
#FORMAT      : EMSA/MAS Spectral Data File
#VERSION     : 1.0
#TITLE       : Spectrum 7
#DATE        : 21-AUG-2025
#TIME        : 15:11
#OWNER       : XGT7200
#NPOINTS     : 4096.
#NCOLUMNS    : 1.
#XUNITS      : keV
#YUNITS      : counts
#DATATYPE    : XY
#XPERCHAN    : 0.0100000
#OFFSET      : -0.400000
#SIGNALTYPE  : EDS
#CHOFFSET    : 40.0000
#LIVETIME    : 30
#REALTIME    : 39.9128
#BEAMKV      : 50.0000
#PROBECUR    : 734000.
#MAGCAM      : 100.000
#XTILTSTGE   : 0.0
#AZIMANGLE   : 0.0
#ELEVANGLE   : 45.0
#XPOSITION mm: 0.0000
#YPOSITION mm: 0.0000
#ZPOSITION mm: 0.0000
##OXINSTPT   : 4
##OXINSTSTROB: 71.95
#SPECTRUM    : Spectral Data Starts Here
-0.40000, 0.
-0.26000, 0.
-0.12000, 0.
0.02000, 0.
0.16000, 0.
0.30000, 0.
0.44000, 38.
0.58000, 70.
0.72000, 44.
0.86000, 41.
1.00000, 51.
1.14000, 54.
1.28000, 64.
1.42000, 125.
1.56000, 142.
1.70000, 2527.
1.84000, 569.
1.98000, 108.
2.12000, 44.
2.26000, 795.
2.40000, 287.
2.54000, 76.
2.68000, 543.
2.82000, 508.
2.96000, 144.
3.10000, 41.
3.24000, 153.
3.38000, 258.
3.52000, 113.
3.66000, 5719.
3.80000, 899.
3.94000, 400.
4.08000, 524.
4.22000, 37.
4.36000, 50.
4.50000, 401.
4.64000, 90.
4.78000, 45.
4.92000, 113.
5.06000, 45.
5.20000, 27.
5.34000, 46.
5.48000, 57.
5.62000, 59.
5.76000, 58.
5.90000, 240.
6.04000, 75.
6.18000, 155.
6.32000, 4481.
6.46000, 6411.
6.60000, 152.
6.74000, 112.
6.88000, 178.
7.02000, 1495.
7.16000, 501.
7.30000, 71.
7.44000, 96.
7.58000, 74.
7.72000, 75.
7.86000, 92.
8.00000, 129.
8.14000, 119.
8.28000, 116.
8.42000, 110.
8.56000, 274.
8.70000, 263.
8.84000, 119.
8.98000, 117.
9.12000, 108.
9.26000, 139.
9.40000, 136.
9.54000, 161.
9.68000, 170.
9.82000, 119.
9.96000, 161.
10.10000, 151.
10.24000, 146.
10.38000, 156.
10.52000, 200.
10.66000, 174.
10.80000, 171.
10.94000, 165.
11.08000, 139.
11.22000, 147.
11.36000, 163.
11.50000, 166.
11.64000, 172.
11.78000, 156.
11.92000, 188.
12.06000, 160.
12.20000, 163.
12.34000, 171.
12.48000, 159.
12.62000, 199.
12.76000, 185.
12.90000, 165.
13.04000, 196.
13.18000, 209.
13.32000, 199.
13.46000, 180.
13.60000, 155.
13.74000, 151.
13.88000, 182.
14.02000, 320.
14.16000, 413.
14.30000, 214.
14.44000, 155.
14.58000, 162.
14.72000, 174.
14.86000, 201.
15.00000, 171.
15.14000, 168.
15.28000, 162.
15.42000, 167.
15.56000, 260.
15.70000, 466.
15.84000, 363.
15.98000, 192.
16.12000, 189.
16.26000, 179.
16.40000, 175.
16.54000, 173.
16.68000, 187.
16.82000, 147.
16.96000, 170.
17.10000, 142.
17.24000, 207.
17.38000, 195.
17.52000, 213.
17.66000, 229.
17.80000, 262.
17.94000, 241.
18.08000, 252.
18.22000, 336.
18.36000, 432.
18.50000, 673.
18.64000, 899.
18.78000, 1098.
18.92000, 998.
19.06000, 745.
19.20000, 480.
19.34000, 348.
19.48000, 268.
19.62000, 204.
19.76000, 198.
19.90000, 282.
20.04000, 486.
20.18000, 587.
20.32000, 298.
20.46000, 163.
20.60000, 184.
20.74000, 238.
20.88000, 297.
21.02000, 292.
21.16000, 263.
21.30000, 221.
21.44000, 199.
21.58000, 161.
21.72000, 128.
21.86000, 116.
22.00000, 102.
22.14000, 88.
22.28000, 109.
22.42000, 92.
22.56000, 107.
22.70000, 153.
22.84000, 105.
22.98000, 90.
23.12000, 86.
23.26000, 74.
23.40000, 87.
23.54000, 60.
23.68000, 89.
23.82000, 69.
23.96000, 82.
24.10000, 72.
24.24000, 83.
24.38000, 73.
24.52000, 66.
24.66000, 73.
24.80000, 61.
24.94000, 74.
25.08000, 82.
25.22000, 67.
25.36000, 74.
25.50000, 78.
25.64000, 57.
25.78000, 76.
25.92000, 66.
26.06000, 77.
26.20000, 65.
26.34000, 59.
26.48000, 56.
26.62000, 68.
26.76000, 62.
26.90000, 50.
27.04000, 61.
27.18000, 55.
27.32000, 59.
27.46000, 61.
27.60000, 50.
27.74000, 40.
27.88000, 37.
28.02000, 34.
28.16000, 45.
28.30000, 40.
28.44000, 53.
28.58000, 44.
28.72000, 46.
28.86000, 43.
29.00000, 46.
29.14000, 40.
29.28000, 47.
29.42000, 52.
29.56000, 46.
29.70000, 42.
29.84000, 39.
29.98000, 41.
30.12000, 34.
30.26000, 39.
30.40000, 34.
30.54000, 33.
30.68000, 44.
30.82000, 39.
30.96000, 34.
31.10000, 25.
31.24000, 40.
31.38000, 27.
31.52000, 32.
31.66000, 31.
31.80000, 32.
31.94000, 35.
32.08000, 36.
32.22000, 44.
32.36000, 24.
32.50000, 24.
32.64000, 25.
32.78000, 24.
32.92000, 23.
33.06000, 34.
33.20000, 26.
33.34000, 22.
33.48000, 20.
33.62000, 25.
33.76000, 21.
33.90000, 20.
34.04000, 20.
34.18000, 15.
34.32000, 19.
34.46000, 27.
34.60000, 19.
34.74000, 25.
34.88000, 21.
35.02000, 23.
35.16000, 7.
35.30000, 18.
35.44000, 12.
35.58000, 20.
35.72000, 11.
35.86000, 9.
36.00000, 22.
36.14000, 15.
36.28000, 15.
36.42000, 14.
36.56000, 11.
36.70000, 16.
36.84000, 11.
36.98000, 14.
37.12000, 11.
37.26000, 15.
37.40000, 7.
37.54000, 10.
37.68000, 9.
37.82000, 9.
37.96000, 13.
38.10000, 8.
38.24000, 8.
38.38000, 6.
38.52000, 11.
38.66000, 14.
38.80000, 12.
38.94000, 7.
39.08000, 5.
39.22000, 3.
39.36000, 5.
39.50000, 7.
39.64000, 0.
39.78000, 7.
39.92000, 8.
40.06000, 7.
40.20000, 9.
40.34000, 4.
40.48000, 3.
40.55000, 0.
#ENDOFDATA   :