File: sample_data/data/Spectrum value from standard/LKSD1/Spectrum 9.txt
#FORMAT      : EMSA/MAS Spectral Data File
#VERSION     : 1.0
#TITLE       : Spectrum 9
#DATE        : 21-AUG-2025
#TIME        : 15:13
#OWNER       : XGT7200
#NPOINTS     : 4096.
#NCOLUMNS    : 1.
#XUNITS      : keV
#YUNITS      : counts
#DATATYPE    : XY
#XPERCHAN    : 0.0100000
#OFFSET      : -0.400000
#SIGNALTYPE  : EDS
#CHOFFSET    : 40.0000
#LIVETIME    : 30
#REALTIME    : 39.7691
#BEAMKV      : 50.0000
#PROBECUR    : 719000.
#MAGCAM      : 100.000
#XTILTSTGE   : 0.0
#AZIMANGLE   : 0.0
#ELEVANGLE   : 45.0
#XPOSITION mm: 0.0000
#YPOSITION mm: 0.0000
#ZPOSITION mm: 0.0000
##OXINSTPT   : 4
##OXINSTSTROB: 71.91
#SPECTRUM    : Spectral Data Starts Here
-0.40000, 0.
-0.26000, 0.
-0.12000, 0.
0.02000, 0.
0.16000, 0.
0.30000, 0.
0.44000, 46.
0.58000, 52.
0.72000, 43.
0.86000, 51.
1.00000, 50.
1.14000, 45.
1.28000, 60.
1.42000, 95.
1.56000, 156.
1.70000, 2667.
1.84000, 606.
1.98000, 125.
2.12000, 34.
2.26000, 879.
2.40000, 288.
2.54000, 76.
2.68000, 490.
2.82000, 322.
2.96000, 114.
3.10000, 43.
3.24000, 179.
3.38000, 224.
3.52000, 117.
3.66000, 5766.
3.80000, 908.
3.94000, 389.
4.08000, 542.
4.22000, 28.
4.36000, 35.
4.50000, 283.
4.64000, 78.
4.78000, 58.
4.92000, 94.
5.06000, 46.
5.20000, 45.
5.34000, 76.
5.48000, 61.
5.62000, 61.
5.76000, 63.
5.90000, 256.
6.04000, 65.
6.18000, 108.
6.32000, 4254.
6.46000, 6180.
6.60000, 150.
6.74000, 91.
6.88000, 159.
7.02000, 1450.
7.16000, 468.
7.30000, 85.
7.44000, 89.
7.58000, 63.
7.72000, 95.
7.86000, 106.
8.00000, 129.
8.14000, 156.
8.28000, 98.
8.42000, 111.
8.56000, 247.
8.70000, 232.
8.84000, 133.
8.98000, 122.
9.12000, 125.
9.26000, 147.
9.40000, 142.
9.54000, 168.
9.68000, 130.
9.82000, 121.
9.96000, 156.
10.10000, 124.
10.24000, 138.
10.38000, 162.
10.52000, 223.
10.66000, 182.
10.80000, 174.
10.94000, 162.
11.08000, 152.
11.22000, 161.
11.36000, 169.
11.50000, 167.
11.64000, 143.
11.78000, 194.
11.92000, 167.
12.06000, 132.
12.20000, 190.
12.34000, 164.
12.48000, 205.
12.62000, 189.
12.76000, 183.
12.90000, 190.
13.04000, 197.
13.18000, 174.
13.32000, 206.
13.46000, 215.
13.60000, 169.
13.74000, 168.
13.88000, 185.
14.02000, 320.
14.16000, 460.
14.30000, 233.
14.44000, 168.
14.58000, 190.
14.72000, 157.
14.86000, 179.
15.00000, 169.
15.14000, 177.
15.28000, 167.
15.42000, 170.
15.56000, 214.
15.70000, 278.
15.84000, 268.
15.98000, 173.
16.12000, 172.
16.26000, 163.
16.40000, 144.
16.54000, 169.
16.68000, 160.
16.82000, 183.
16.96000, 190.
17.10000, 180.
17.24000, 189.
17.38000, 210.
17.52000, 216.
17.66000, 215.
17.80000, 222.
17.94000, 201.
18.08000, 282.
18.22000, 302.
18.36000, 449.
18.50000, 627.
18.64000, 968.
18.78000, 1062.
18.92000, 974.
19.06000, 744.
19.20000, 522.
19.34000, 334.
19.48000, 287.
19.62000, 201.
19.76000, 223.
19.90000, 247.
20.04000, 443.
20.18000, 596.
20.32000, 336.
20.46000, 179.
20.60000, 220.
20.74000, 247.
20.88000, 277.
21.02000, 275.
21.16000, 260.
21.30000, 219.
21.44000, 202.
21.58000, 155.
21.72000, 132.
21.86000, 110.
22.00000, 124.
22.14000, 110.
22.28000, 92.
22.42000, 97.
22.56000, 132.
22.70000, 153.
22.84000, 118.
22.98000, 84.
23.12000, 89.
23.26000, 93.
23.40000, 83.
23.54000, 74.
23.68000, 69.
23.82000, 69.
23.96000, 62.
24.10000, 78.
24.24000, 72.
24.38000, 80.
24.52000, 70.
24.66000, 77.
24.80000, 74.
24.94000, 68.
25.08000, 90.
25.22000, 80.
25.36000, 82.
25.50000, 81.
25.64000, 54.
25.78000, 60.
25.92000, 51.
26.06000, 64.
26.20000, 64.
26.34000, 67.
26.48000, 60.
26.62000, 70.
26.76000, 54.
26.90000, 59.
27.04000, 56.
27.18000, 50.
27.32000, 58.
27.46000, 53.
27.60000, 43.
27.74000, 52.
27.88000, 50.
28.02000, 47.
28.16000, 40.
28.30000, 48.
28.44000, 51.
28.58000, 57.
28.72000, 49.
28.86000, 39.
29.00000, 42.
29.14000, 40.
29.28000, 43.
29.42000, 42.
29.56000, 41.
29.70000, 36.
29.84000, 38.
29.98000, 44.
30.12000, 40.
30.26000, 35.
30.40000, 39.
30.54000, 41.
30.68000, 27.
30.82000, 37.
30.96000, 33.
31.10000, 28.
31.24000, 35.
31.38000, 24.
31.52000, 35.
31.66000, 35.
31.80000, 41.
31.94000, 29.
32.08000, 28.
32.22000, 33.
32.36000, 28.
32.50000, 27.
32.64000, 21.
32.78000, 36.
32.92000, 24.
33.06000, 24.
33.20000, 29.
33.34000, 22.
33.48000, 28.
33.62000, 20.
33.76000, 23.
33.90000, 29.
34.04000, 23.
34.18000, 35.
34.32000, 23.
34.46000, 22.
34.60000, 21.
34.74000, 9.
34.88000, 19.
35.02000, 15.
35.16000, 15.
35.30000, 15.
35.44000, 14.
35.58000, 21.
35.72000, 20.
35.86000, 18.
36.00000, 14.
36.14000, 14.
36.28000, 14.
36.42000, 22.
36.56000, 18.
36.70000, 15.
36.84000, 11.
36.98000, 14.
37.12000, 21.
37.26000, 15.
37.40000, 11.
37.54000, 12.
37.68000, 12.
37.82000, 8.
37.96000, 9.
38.10000, 12.
38.24000, 14.
38.38000, 10.
38.52000, 11.
38.66000, 11.
38.80000, 7.
38.94000, 6.
39.08000, 5.
39.22000, 12.
39.36000, 6.
39.50000, 6.
39.64000, 6.
39.78000, 4.
39.92000, 5.
40.06000, 9.
40.20000, 2.
40.34000, 4.
40.48000, 5.
40.55000, 0.
#ENDOFDATA   :