File: sample_data/data/Spectrum value from standard/PACS 2/Spectrum 16, PACS 2.txt
#FORMAT      : EMSA/MAS Spectral Data File
#VERSION     : 1.0
#TITLE       : Spectrum 16
#DATE        : 21-AUG-2025
#TIME        : 15:20
#OWNER       : XGT7200
#NPOINTS     : 4096.
#NCOLUMNS    : 1.
#XUNITS      : keV
#YUNITS      : counts
#DATATYPE    : XY
#XPERCHAN    : 0.0100000
#OFFSET      : -0.400000
#SIGNALTYPE  : EDS
#CHOFFSET    : 40.0000
#LIVETIME    : 30
#REALTIME    : 39.6024
#BEAMKV      : 50.0000
#PROBECUR    : 697000.
#MAGCAM      : 100.000
#XTILTSTGE   : 0.0
#AZIMANGLE   : 0.0
#ELEVANGLE   : 45.0
#XPOSITION mm: 0.0000
#YPOSITION mm: 0.0000
#ZPOSITION mm: 0.0000
##OXINSTPT   : 4
##OXINSTSTROB: 72.08
#SPECTRUM    : Spectral Data Starts Here
-0.40000, 0.
-0.26000, 0.
-0.12000, 0.
0.02000, 0.
0.16000, 0.
0.30000, 0.
0.44000, 43.
0.58000, 75.
0.72000, 55.
0.86000, 64.
1.00000, 61.
1.14000, 50.
1.28000, 76.
1.42000, 180.
1.56000, 229.
1.70000, 3461.
1.84000, 779.
1.98000, 64.
2.12000, 36.
2.26000, 459.
2.40000, 166.
2.54000, 359.
2.68000, 1310.
2.82000, 419.
2.96000, 79.
3.10000, 30.
3.24000, 208.
3.38000, 271.
3.52000, 61.
3.66000, 1013.
3.80000, 153.
3.94000, 100.
4.08000, 136.
4.22000, 28.
4.36000, 57.
4.50000, 594.
4.64000, 115.
4.78000, 59.
4.92000, 136.
5.06000, 65.
5.20000, 44.
5.34000, 87.
5.48000, 68.
5.62000, 45.
5.76000, 69.
5.90000, 165.
6.04000, 78.
6.18000, 114.
6.32000, 6041.
6.46000, 8579.
6.60000, 181.
6.74000, 89.
6.88000, 194.
7.02000, 1999.
7.16000, 584.
7.30000, 76.
7.44000, 107.
7.58000, 75.
7.72000, 89.
7.86000, 116.
8.00000, 228.
8.14000, 177.
8.28000, 118.
8.42000, 93.
8.56000, 199.
8.70000, 228.
8.84000, 151.
8.98000, 124.
9.12000, 120.
9.26000, 146.
9.40000, 122.
9.54000, 125.
9.68000, 131.
9.82000, 124.
9.96000, 129.
10.10000, 129.
10.24000, 123.
10.38000, 156.
10.52000, 211.
10.66000, 161.
10.80000, 132.
10.94000, 133.
11.08000, 134.
11.22000, 154.
11.36000, 151.
11.50000, 157.
11.64000, 162.
11.78000, 215.
11.92000, 318.
12.06000, 171.
12.20000, 142.
12.34000, 157.
12.48000, 171.
12.62000, 190.
12.76000, 202.
12.90000, 175.
13.04000, 154.
13.18000, 170.
13.32000, 220.
13.46000, 219.
13.60000, 137.
13.74000, 147.
13.88000, 185.
14.02000, 288.
14.16000, 400.
14.30000, 159.
14.44000, 168.
14.58000, 155.
14.72000, 152.
14.86000, 163.
15.00000, 136.
15.14000, 163.
15.28000, 153.
15.42000, 161.
15.56000, 171.
15.70000, 284.
15.84000, 222.
15.98000, 167.
16.12000, 166.
16.26000, 145.
16.40000, 142.
16.54000, 162.
16.68000, 164.
16.82000, 133.
16.96000, 147.
17.10000, 161.
17.24000, 169.
17.38000, 146.
17.52000, 202.
17.66000, 198.
17.80000, 202.
17.94000, 224.
18.08000, 260.
18.22000, 335.
18.36000, 370.
18.50000, 568.
18.64000, 800.
18.78000, 870.
18.92000, 826.
19.06000, 599.
19.20000, 454.
19.34000, 297.
19.48000, 245.
19.62000, 205.
19.76000, 182.
19.90000, 221.
20.04000, 417.
20.18000, 541.
20.32000, 272.
20.46000, 172.
20.60000, 192.
20.74000, 231.
20.88000, 239.
21.02000, 289.
21.16000, 246.
21.30000, 201.
21.44000, 141.
21.58000, 119.
21.72000, 129.
21.86000, 105.
22.00000, 107.
22.14000, 90.
22.28000, 102.
22.42000, 84.
22.56000, 113.
22.70000, 151.
22.84000, 95.
22.98000, 59.
23.12000, 71.
23.26000, 84.
23.40000, 67.
23.54000, 77.
23.68000, 58.
23.82000, 68.
23.96000, 74.
24.10000, 69.
24.24000, 69.
24.38000, 65.
24.52000, 49.
24.66000, 70.
24.80000, 63.
24.94000, 61.
25.08000, 72.
25.22000, 80.
25.36000, 59.
25.50000, 61.
25.64000, 51.
25.78000, 59.
25.92000, 55.
26.06000, 65.
26.20000, 46.
26.34000, 58.
26.48000, 61.
26.62000, 58.
26.76000, 65.
26.90000, 55.
27.04000, 43.
27.18000, 51.
27.32000, 53.
27.46000, 52.
27.60000, 53.
27.74000, 37.
27.88000, 50.
28.02000, 46.
28.16000, 44.
28.30000, 52.
28.44000, 38.
28.58000, 40.
28.72000, 44.
28.86000, 35.
29.00000, 57.
29.14000, 35.
29.28000, 43.
29.42000, 32.
29.56000, 41.
29.70000, 37.
29.84000, 38.
29.98000, 49.
30.12000, 41.
30.26000, 37.
30.40000, 40.
30.54000, 28.
30.68000, 28.
30.82000, 25.
30.96000, 30.
31.10000, 31.
31.24000, 23.
31.38000, 27.
31.52000, 23.
31.66000, 31.
31.80000, 35.
31.94000, 31.
32.08000, 25.
32.22000, 37.
32.36000, 39.
32.50000, 22.
32.64000, 33.
32.78000, 28.
32.92000, 27.
33.06000, 26.
33.20000, 26.
33.34000, 24.
33.48000, 19.
33.62000, 28.
33.76000, 17.
33.90000, 11.
34.04000, 21.
34.18000, 17.
34.32000, 20.
34.46000, 18.
34.60000, 23.
34.74000, 23.
34.88000, 15.
35.02000, 11.
35.16000, 24.
35.30000, 14.
35.44000, 17.
35.58000, 17.
35.72000, 12.
35.86000, 20.
36.00000, 16.
36.14000, 20.
36.28000, 23.
36.42000, 13.
36.56000, 8.
36.70000, 10.
36.84000, 15.
36.98000, 11.
37.12000, 14.
37.26000, 10.
37.40000, 15.
37.54000, 7.
37.68000, 8.
37.82000, 15.
37.96000, 4.
38.10000, 11.
38.24000, 10.
38.38000, 10.
38.52000, 7.
38.66000, 15.
38.80000, 5.
38.94000, 7.
39.08000, 7.
39.22000, 11.
39.36000, 10.
39.50000, 7.
39.64000, 6.
39.78000, 7.
39.92000, 3.
40.06000, 5.
40.20000, 3.
40.34000, 5.
40.48000, 5.
40.55000, 0.
#ENDOFDATA   :