File: sample_data/data/Spectrum value from standard/PACS 2/Spectrum 13, PACS 2.txt
#FORMAT      : EMSA/MAS Spectral Data File
#VERSION     : 1.0
#TITLE       : Spectrum 13
#DATE        : 21-AUG-2025
#TIME        : 15:17
#OWNER       : XGT7200
#NPOINTS     : 4096.
#NCOLUMNS    : 1.
#XUNITS      : keV
#YUNITS      : counts
#DATATYPE    : XY
#XPERCHAN    : 0.0100000
#OFFSET      : -0.400000
#SIGNALTYPE  : EDS
#CHOFFSET    : 40.0000
#LIVETIME    : 30
#REALTIME    : 39.6942
#BEAMKV      : 50.0000
#PROBECUR    : 713000.
#MAGCAM      : 100.000
#XTILTSTGE   : 0.0
#AZIMANGLE   : 0.0
#ELEVANGLE   : 45.0
#XPOSITION mm: 0.0000
#YPOSITION mm: 0.0000
#ZPOSITION mm: 0.0000
##OXINSTPT   : 4
##OXINSTSTROB: 71.96
#SPECTRUM    : Spectral Data Starts Here
-0.40000, 0.
-0.26000, 0.
-0.12000, 0.
0.02000, 0.
0.16000, 0.
0.30000, 0.
0.44000, 53.
0.58000, 63.
0.72000, 41.
0.86000, 49.
1.00000, 50.
1.14000, 54.
1.28000, 77.
1.42000, 175.
1.56000, 253.
1.70000, 3505.
1.84000, 784.
1.98000, 72.
2.12000, 37.
2.26000, 474.
2.40000, 181.
2.54000, 407.
2.68000, 1262.
2.82000, 420.
2.96000, 95.
3.10000, 29.
3.24000, 180.
3.38000, 269.
3.52000, 62.
3.66000, 941.
3.80000, 157.
3.94000, 91.
4.08000, 110.
4.22000, 36.
4.36000, 55.
4.50000, 576.
4.64000, 117.
4.78000, 59.
4.92000, 162.
5.06000, 50.
5.20000, 67.
5.34000, 81.
5.48000, 79.
5.62000, 65.
5.76000, 74.
5.90000, 164.
6.04000, 70.
6.18000, 145.
6.32000, 6048.
6.46000, 8408.
6.60000, 152.
6.74000, 109.
6.88000, 189.
7.02000, 1983.
7.16000, 611.
7.30000, 80.
7.44000, 93.
7.58000, 76.
7.72000, 96.
7.86000, 111.
8.00000, 226.
8.14000, 190.
8.28000, 94.
8.42000, 114.
8.56000, 229.
8.70000, 233.
8.84000, 127.
8.98000, 132.
9.12000, 129.
9.26000, 141.
9.40000, 131.
9.54000, 145.
9.68000, 145.
9.82000, 121.
9.96000, 138.
10.10000, 136.
10.24000, 140.
10.38000, 134.
10.52000, 210.
10.66000, 164.
10.80000, 127.
10.94000, 145.
11.08000, 128.
11.22000, 149.
11.36000, 142.
11.50000, 141.
11.64000, 168.
11.78000, 204.
11.92000, 316.
12.06000, 182.
12.20000, 135.
12.34000, 138.
12.48000, 158.
12.62000, 202.
12.76000, 219.
12.90000, 192.
13.04000, 183.
13.18000, 199.
13.32000, 237.
13.46000, 191.
13.60000, 162.
13.74000, 164.
13.88000, 168.
14.02000, 293.
14.16000, 405.
14.30000, 188.
14.44000, 173.
14.58000, 141.
14.72000, 170.
14.86000, 195.
15.00000, 165.
15.14000, 170.
15.28000, 138.
15.42000, 159.
15.56000, 226.
15.70000, 369.
15.84000, 294.
15.98000, 160.
16.12000, 137.
16.26000, 151.
16.40000, 152.
16.54000, 157.
16.68000, 177.
16.82000, 157.
16.96000, 173.
17.10000, 145.
17.24000, 172.
17.38000, 161.
17.52000, 212.
17.66000, 211.
17.80000, 176.
17.94000, 232.
18.08000, 257.
18.22000, 324.
18.36000, 396.
18.50000, 628.
18.64000, 828.
18.78000, 919.
18.92000, 863.
19.06000, 655.
19.20000, 419.
19.34000, 306.
19.48000, 261.
19.62000, 203.
19.76000, 174.
19.90000, 218.
20.04000, 430.
20.18000, 572.
20.32000, 273.
20.46000, 129.
20.60000, 183.
20.74000, 228.
20.88000, 221.
21.02000, 264.
21.16000, 240.
21.30000, 194.
21.44000, 176.
21.58000, 141.
21.72000, 115.
21.86000, 98.
22.00000, 99.
22.14000, 94.
22.28000, 87.
22.42000, 73.
22.56000, 102.
22.70000, 136.
22.84000, 88.
22.98000, 78.
23.12000, 90.
23.26000, 91.
23.40000, 74.
23.54000, 61.
23.68000, 54.
23.82000, 58.
23.96000, 69.
24.10000, 62.
24.24000, 62.
24.38000, 57.
24.52000, 60.
24.66000, 64.
24.80000, 68.
24.94000, 70.
25.08000, 89.
25.22000, 65.
25.36000, 70.
25.50000, 53.
25.64000, 63.
25.78000, 54.
25.92000, 61.
26.06000, 67.
26.20000, 48.
26.34000, 40.
26.48000, 47.
26.62000, 59.
26.76000, 54.
26.90000, 83.
27.04000, 53.
27.18000, 55.
27.32000, 55.
27.46000, 45.
27.60000, 42.
27.74000, 41.
27.88000, 42.
28.02000, 44.
28.16000, 45.
28.30000, 47.
28.44000, 49.
28.58000, 41.
28.72000, 31.
28.86000, 41.
29.00000, 47.
29.14000, 36.
29.28000, 51.
29.42000, 41.
29.56000, 46.
29.70000, 40.
29.84000, 37.
29.98000, 54.
30.12000, 24.
30.26000, 39.
30.40000, 33.
30.54000, 36.
30.68000, 29.
30.82000, 23.
30.96000, 32.
31.10000, 38.
31.24000, 35.
31.38000, 32.
31.52000, 40.
31.66000, 24.
31.80000, 36.
31.94000, 34.
32.08000, 33.
32.22000, 36.
32.36000, 25.
32.50000, 27.
32.64000, 18.
32.78000, 30.
32.92000, 27.
33.06000, 19.
33.20000, 15.
33.34000, 28.
33.48000, 19.
33.62000, 20.
33.76000, 22.
33.90000, 26.
34.04000, 25.
34.18000, 14.
34.32000, 22.
34.46000, 11.
34.60000, 16.
34.74000, 16.
34.88000, 20.
35.02000, 16.
35.16000, 18.
35.30000, 19.
35.44000, 18.
35.58000, 20.
35.72000, 18.
35.86000, 15.
36.00000, 16.
36.14000, 8.
36.28000, 10.
36.42000, 12.
36.56000, 7.
36.70000, 11.
36.84000, 8.
36.98000, 12.
37.12000, 22.
37.26000, 5.
37.40000, 12.
37.54000, 8.
37.68000, 11.
37.82000, 6.
37.96000, 8.
38.10000, 10.
38.24000, 10.
38.38000, 10.
38.52000, 10.
38.66000, 13.
38.80000, 8.
38.94000, 13.
39.08000, 6.
39.22000, 7.
39.36000, 9.
39.50000, 8.
39.64000, 3.
39.78000, 5.
39.92000, 10.
40.06000, 5.
40.20000, 6.
40.34000, 5.
40.48000, 6.
40.55000, 0.
#ENDOFDATA   :