File: sample_data/data/Spectrum value from standard/PACS 2/Spectrum 14.txt
#FORMAT      : EMSA/MAS Spectral Data File
#VERSION     : 1.0
#TITLE       : Spectrum 14
#DATE        : 21-AUG-2025
#TIME        : 15:18
#OWNER       : XGT7200
#NPOINTS     : 4096.
#NCOLUMNS    : 1.
#XUNITS      : keV
#YUNITS      : counts
#DATATYPE    : XY
#XPERCHAN    : 0.0100000
#OFFSET      : -0.400000
#SIGNALTYPE  : EDS
#CHOFFSET    : 40.0000
#LIVETIME    : 30
#REALTIME    : 39.5713
#BEAMKV      : 50.0000
#PROBECUR    : 698000.
#MAGCAM      : 100.000
#XTILTSTGE   : 0.0
#AZIMANGLE   : 0.0
#ELEVANGLE   : 45.0
#XPOSITION mm: 0.0000
#YPOSITION mm: 0.0000
#ZPOSITION mm: 0.0000
##OXINSTPT   : 4
##OXINSTSTROB: 72.11
#SPECTRUM    : Spectral Data Starts Here
-0.40000, 0.
-0.26000, 0.
-0.12000, 0.
0.02000, 0.
0.16000, 0.
0.30000, 0.
0.44000, 43.
0.58000, 50.
0.72000, 51.
0.86000, 63.
1.00000, 53.
1.14000, 39.
1.28000, 64.
1.42000, 169.
1.56000, 219.
1.70000, 3298.
1.84000, 786.
1.98000, 76.
2.12000, 30.
2.26000, 454.
2.40000, 175.
2.54000, 378.
2.68000, 1215.
2.82000, 452.
2.96000, 77.
3.10000, 35.
3.24000, 182.
3.38000, 275.
3.52000, 59.
3.66000, 1094.
3.80000, 184.
3.94000, 89.
4.08000, 111.
4.22000, 35.
4.36000, 47.
4.50000, 572.
4.64000, 132.
4.78000, 67.
4.92000, 147.
5.06000, 50.
5.20000, 65.
5.34000, 82.
5.48000, 81.
5.62000, 46.
5.76000, 64.
5.90000, 180.
6.04000, 69.
6.18000, 148.
6.32000, 6225.
6.46000, 8716.
6.60000, 161.
6.74000, 91.
6.88000, 173.
7.02000, 1923.
7.16000, 581.
7.30000, 69.
7.44000, 81.
7.58000, 64.
7.72000, 70.
7.86000, 94.
8.00000, 242.
8.14000, 197.
8.28000, 100.
8.42000, 118.
8.56000, 257.
8.70000, 255.
8.84000, 118.
8.98000, 124.
9.12000, 109.
9.26000, 122.
9.40000, 135.
9.54000, 158.
9.68000, 139.
9.82000, 127.
9.96000, 115.
10.10000, 117.
10.24000, 131.
10.38000, 131.
10.52000, 224.
10.66000, 142.
10.80000, 139.
10.94000, 117.
11.08000, 140.
11.22000, 155.
11.36000, 134.
11.50000, 139.
11.64000, 151.
11.78000, 202.
11.92000, 316.
12.06000, 156.
12.20000, 134.
12.34000, 153.
12.48000, 162.
12.62000, 199.
12.76000, 182.
12.90000, 167.
13.04000, 152.
13.18000, 180.
13.32000, 204.
13.46000, 200.
13.60000, 141.
13.74000, 150.
13.88000, 155.
14.02000, 263.
14.16000, 379.
14.30000, 203.
14.44000, 132.
14.58000, 178.
14.72000, 143.
14.86000, 175.
15.00000, 159.
15.14000, 149.
15.28000, 172.
15.42000, 194.
15.56000, 204.
15.70000, 279.
15.84000, 235.
15.98000, 183.
16.12000, 159.
16.26000, 154.
16.40000, 142.
16.54000, 157.
16.68000, 152.
16.82000, 170.
16.96000, 153.
17.10000, 149.
17.24000, 149.
17.38000, 187.
17.52000, 211.
17.66000, 221.
17.80000, 203.
17.94000, 206.
18.08000, 236.
18.22000, 296.
18.36000, 378.
18.50000, 599.
18.64000, 795.
18.78000, 897.
18.92000, 874.
19.06000, 607.
19.20000, 449.
19.34000, 304.
19.48000, 237.
19.62000, 182.
19.76000, 180.
19.90000, 222.
20.04000, 418.
20.18000, 551.
20.32000, 251.
20.46000, 163.
20.60000, 140.
20.74000, 207.
20.88000, 238.
21.02000, 219.
21.16000, 224.
21.30000, 203.
21.44000, 149.
21.58000, 145.
21.72000, 119.
21.86000, 109.
22.00000, 88.
22.14000, 110.
22.28000, 71.
22.42000, 89.
22.56000, 122.
22.70000, 155.
22.84000, 81.
22.98000, 88.
23.12000, 60.
23.26000, 79.
23.40000, 67.
23.54000, 67.
23.68000, 67.
23.82000, 60.
23.96000, 73.
24.10000, 57.
24.24000, 65.
24.38000, 52.
24.52000, 72.
24.66000, 71.
24.80000, 68.
24.94000, 74.
25.08000, 73.
25.22000, 69.
25.36000, 66.
25.50000, 57.
25.64000, 62.
25.78000, 54.
25.92000, 49.
26.06000, 53.
26.20000, 52.
26.34000, 48.
26.48000, 45.
26.62000, 61.
26.76000, 49.
26.90000, 40.
27.04000, 53.
27.18000, 52.
27.32000, 44.
27.46000, 46.
27.60000, 53.
27.74000, 58.
27.88000, 51.
28.02000, 48.
28.16000, 52.
28.30000, 41.
28.44000, 43.
28.58000, 43.
28.72000, 44.
28.86000, 45.
29.00000, 40.
29.14000, 41.
29.28000, 37.
29.42000, 33.
29.56000, 43.
29.70000, 34.
29.84000, 28.
29.98000, 27.
30.12000, 25.
30.26000, 40.
30.40000, 36.
30.54000, 32.
30.68000, 22.
30.82000, 28.
30.96000, 39.
31.10000, 30.
31.24000, 24.
31.38000, 29.
31.52000, 29.
31.66000, 33.
31.80000, 31.
31.94000, 23.
32.08000, 22.
32.22000, 41.
32.36000, 27.
32.50000, 34.
32.64000, 24.
32.78000, 22.
32.92000, 27.
33.06000, 22.
33.20000, 25.
33.34000, 27.
33.48000, 12.
33.62000, 21.
33.76000, 17.
33.90000, 18.
34.04000, 19.
34.18000, 27.
34.32000, 22.
34.46000, 11.
34.60000, 16.
34.74000, 18.
34.88000, 14.
35.02000, 20.
35.16000, 13.
35.30000, 18.
35.44000, 20.
35.58000, 17.
35.72000, 18.
35.86000, 19.
36.00000, 10.
36.14000, 14.
36.28000, 13.
36.42000, 15.
36.56000, 11.
36.70000, 11.
36.84000, 18.
36.98000, 13.
37.12000, 19.
37.26000, 10.
37.40000, 11.
37.54000, 9.
37.68000, 16.
37.82000, 12.
37.96000, 6.
38.10000, 11.
38.24000, 10.
38.38000, 9.
38.52000, 11.
38.66000, 9.
38.80000, 5.
38.94000, 5.
39.08000, 5.
39.22000, 5.
39.36000, 10.
39.50000, 9.
39.64000, 4.
39.78000, 5.
39.92000, 5.
40.06000, 5.
40.20000, 6.
40.34000, 8.
40.48000, 2.
40.55000, 0.
#ENDOFDATA   :