File: sample_data/data/Spectrum value from standard/PACS 2/Spectrum 15.txt
#FORMAT      : EMSA/MAS Spectral Data File
#VERSION     : 1.0
#TITLE       : Spectrum 15
#DATE        : 21-AUG-2025
#TIME        : 15:19
#OWNER       : XGT7200
#NPOINTS     : 4096.
#NCOLUMNS    : 1.
#XUNITS      : keV
#YUNITS      : counts
#DATATYPE    : XY
#XPERCHAN    : 0.0100000
#OFFSET      : -0.400000
#SIGNALTYPE  : EDS
#CHOFFSET    : 40.0000
#LIVETIME    : 30
#REALTIME    : 39.5624
#BEAMKV      : 50.0000
#PROBECUR    : 693000.
#MAGCAM      : 100.000
#XTILTSTGE   : 0.0
#AZIMANGLE   : 0.0
#ELEVANGLE   : 45.0
#XPOSITION mm: 0.0000
#YPOSITION mm: 0.0000
#ZPOSITION mm: 0.0000
##OXINSTPT   : 4
##OXINSTSTROB: 72.25
#SPECTRUM    : Spectral Data Starts Here
-0.40000, 0.
-0.26000, 0.
-0.12000, 0.
0.02000, 0.
0.16000, 0.
0.30000, 0.
0.44000, 54.
0.58000, 49.
0.72000, 48.
0.86000, 71.
1.00000, 69.
1.14000, 42.
1.28000, 87.
1.42000, 152.
1.56000, 232.
1.70000, 3349.
1.84000, 769.
1.98000, 74.
2.12000, 33.
2.26000, 476.
2.40000, 173.
2.54000, 382.
2.68000, 1343.
2.82000, 405.
2.96000, 84.
3.10000, 39.
3.24000, 201.
3.38000, 286.
3.52000, 73.
3.66000, 1026.
3.80000, 158.
3.94000, 97.
4.08000, 143.
4.22000, 39.
4.36000, 46.
4.50000, 558.
4.64000, 121.
4.78000, 71.
4.92000, 149.
5.06000, 57.
5.20000, 55.
5.34000, 65.
5.48000, 65.
5.62000, 60.
5.76000, 72.
5.90000, 146.
6.04000, 63.
6.18000, 126.
6.32000, 6141.
6.46000, 8589.
6.60000, 166.
6.74000, 101.
6.88000, 189.
7.02000, 1999.
7.16000, 661.
7.30000, 69.
7.44000, 118.
7.58000, 83.
7.72000, 85.
7.86000, 93.
8.00000, 253.
8.14000, 155.
8.28000, 98.
8.42000, 109.
8.56000, 228.
8.70000, 237.
8.84000, 130.
8.98000, 131.
9.12000, 129.
9.26000, 138.
9.40000, 113.
9.54000, 160.
9.68000, 144.
9.82000, 126.
9.96000, 122.
10.10000, 143.
10.24000, 122.
10.38000, 136.
10.52000, 210.
10.66000, 166.
10.80000, 125.
10.94000, 131.
11.08000, 163.
11.22000, 155.
11.36000, 147.
11.50000, 144.
11.64000, 129.
11.78000, 201.
11.92000, 330.
12.06000, 166.
12.20000, 143.
12.34000, 157.
12.48000, 177.
12.62000, 212.
12.76000, 200.
12.90000, 163.
13.04000, 164.
13.18000, 185.
13.32000, 205.
13.46000, 192.
13.60000, 145.
13.74000, 140.
13.88000, 171.
14.02000, 274.
14.16000, 396.
14.30000, 188.
14.44000, 150.
14.58000, 163.
14.72000, 150.
14.86000, 165.
15.00000, 153.
15.14000, 143.
15.28000, 139.
15.42000, 151.
15.56000, 153.
15.70000, 254.
15.84000, 260.
15.98000, 144.
16.12000, 152.
16.26000, 165.
16.40000, 178.
16.54000, 161.
16.68000, 158.
16.82000, 159.
16.96000, 149.
17.10000, 156.
17.24000, 185.
17.38000, 146.
17.52000, 191.
17.66000, 199.
17.80000, 190.
17.94000, 230.
18.08000, 238.
18.22000, 304.
18.36000, 396.
18.50000, 505.
18.64000, 806.
18.78000, 981.
18.92000, 862.
19.06000, 627.
19.20000, 381.
19.34000, 295.
19.48000, 227.
19.62000, 210.
19.76000, 144.
19.90000, 245.
20.04000, 450.
20.18000, 534.
20.32000, 273.
20.46000, 151.
20.60000, 173.
20.74000, 200.
20.88000, 241.
21.02000, 272.
21.16000, 214.
21.30000, 172.
21.44000, 156.
21.58000, 133.
21.72000, 103.
21.86000, 108.
22.00000, 89.
22.14000, 85.
22.28000, 92.
22.42000, 94.
22.56000, 124.
22.70000, 131.
22.84000, 76.
22.98000, 93.
23.12000, 74.
23.26000, 88.
23.40000, 73.
23.54000, 70.
23.68000, 65.
23.82000, 69.
23.96000, 62.
24.10000, 71.
24.24000, 51.
24.38000, 71.
24.52000, 60.
24.66000, 71.
24.80000, 70.
24.94000, 67.
25.08000, 61.
25.22000, 72.
25.36000, 69.
25.50000, 60.
25.64000, 52.
25.78000, 51.
25.92000, 49.
26.06000, 60.
26.20000, 55.
26.34000, 48.
26.48000, 65.
26.62000, 55.
26.76000, 46.
26.90000, 43.
27.04000, 48.
27.18000, 51.
27.32000, 43.
27.46000, 40.
27.60000, 53.
27.74000, 41.
27.88000, 35.
28.02000, 43.
28.16000, 49.
28.30000, 46.
28.44000, 54.
28.58000, 39.
28.72000, 37.
28.86000, 30.
29.00000, 39.
29.14000, 35.
29.28000, 29.
29.42000, 41.
29.56000, 29.
29.70000, 40.
29.84000, 44.
29.98000, 44.
30.12000, 40.
30.26000, 26.
30.40000, 32.
30.54000, 40.
30.68000, 24.
30.82000, 23.
30.96000, 26.
31.10000, 45.
31.24000, 28.
31.38000, 26.
31.52000, 31.
31.66000, 26.
31.80000, 33.
31.94000, 38.
32.08000, 30.
32.22000, 33.
32.36000, 23.
32.50000, 23.
32.64000, 23.
32.78000, 25.
32.92000, 19.
33.06000, 18.
33.20000, 22.
33.34000, 26.
33.48000, 29.
33.62000, 19.
33.76000, 22.
33.90000, 17.
34.04000, 15.
34.18000, 16.
34.32000, 19.
34.46000, 21.
34.60000, 17.
34.74000, 19.
34.88000, 19.
35.02000, 17.
35.16000, 8.
35.30000, 17.
35.44000, 14.
35.58000, 15.
35.72000, 11.
35.86000, 15.
36.00000, 9.
36.14000, 10.
36.28000, 20.
36.42000, 11.
36.56000, 9.
36.70000, 11.
36.84000, 14.
36.98000, 13.
37.12000, 13.
37.26000, 10.
37.40000, 10.
37.54000, 8.
37.68000, 7.
37.82000, 9.
37.96000, 8.
38.10000, 5.
38.24000, 9.
38.38000, 9.
38.52000, 14.
38.66000, 13.
38.80000, 6.
38.94000, 6.
39.08000, 6.
39.22000, 8.
39.36000, 5.
39.50000, 6.
39.64000, 7.
39.78000, 2.
39.92000, 3.
40.06000, 6.
40.20000, 5.
40.34000, 6.
40.48000, 4.
40.55000, 0.
#ENDOFDATA   :