File: sample_data/data/Spectrum value from standard/PACS 2/Spectrum 17.txt
#FORMAT      : EMSA/MAS Spectral Data File
#VERSION     : 1.0
#TITLE       : Spectrum 17
#DATE        : 21-AUG-2025
#TIME        : 15:21
#OWNER       : XGT7200
#NPOINTS     : 4096.
#NCOLUMNS    : 1.
#XUNITS      : keV
#YUNITS      : counts
#DATATYPE    : XY
#XPERCHAN    : 0.0100000
#OFFSET      : -0.400000
#SIGNALTYPE  : EDS
#CHOFFSET    : 40.0000
#LIVETIME    : 30
#REALTIME    : 39.562
#BEAMKV      : 50.0000
#PROBECUR    : 703000.
#MAGCAM      : 100.000
#XTILTSTGE   : 0.0
#AZIMANGLE   : 0.0
#ELEVANGLE   : 45.0
#XPOSITION mm: 0.0000
#YPOSITION mm: 0.0000
#ZPOSITION mm: 0.0000
##OXINSTPT   : 4
##OXINSTSTROB: 71.81
#SPECTRUM    : Spectral Data Starts Here
-0.40000, 0.
-0.26000, 0.
-0.12000, 0.
0.02000, 0.
0.16000, 0.
0.30000, 0.
0.44000, 38.
0.58000, 67.
0.72000, 42.
0.86000, 56.
1.00000, 66.
1.14000, 33.
1.28000, 80.
1.42000, 205.
1.56000, 238.
1.70000, 3383.
1.84000, 809.
1.98000, 84.
2.12000, 37.
2.26000, 457.
2.40000, 166.
2.54000, 354.
2.68000, 1243.
2.82000, 368.
2.96000, 83.
3.10000, 24.
3.24000, 173.
3.38000, 297.
3.52000, 67.
3.66000, 1092.
3.80000, 192.
3.94000, 96.
4.08000, 131.
4.22000, 32.
4.36000, 52.
4.50000, 719.
4.64000, 136.
4.78000, 72.
4.92000, 170.
5.06000, 57.
5.20000, 62.
5.34000, 69.
5.48000, 75.
5.62000, 56.
5.76000, 63.
5.90000, 183.
6.04000, 73.
6.18000, 121.
6.32000, 6144.
6.46000, 8751.
6.60000, 178.
6.74000, 118.
6.88000, 184.
7.02000, 1984.
7.16000, 710.
7.30000, 103.
7.44000, 92.
7.58000, 81.
7.72000, 84.
7.86000, 104.
8.00000, 194.
8.14000, 157.
8.28000, 102.
8.42000, 96.
8.56000, 256.
8.70000, 229.
8.84000, 148.
8.98000, 126.
9.12000, 131.
9.26000, 127.
9.40000, 113.
9.54000, 138.
9.68000, 143.
9.82000, 122.
9.96000, 149.
10.10000, 118.
10.24000, 116.
10.38000, 137.
10.52000, 211.
10.66000, 147.
10.80000, 125.
10.94000, 143.
11.08000, 119.
11.22000, 151.
11.36000, 145.
11.50000, 134.
11.64000, 140.
11.78000, 196.
11.92000, 315.
12.06000, 149.
12.20000, 144.
12.34000, 154.
12.48000, 157.
12.62000, 208.
12.76000, 186.
12.90000, 153.
13.04000, 171.
13.18000, 147.
13.32000, 192.
13.46000, 170.
13.60000, 144.
13.74000, 131.
13.88000, 159.
14.02000, 324.
14.16000, 412.
14.30000, 196.
14.44000, 128.
14.58000, 135.
14.72000, 154.
14.86000, 176.
15.00000, 181.
15.14000, 158.
15.28000, 129.
15.42000, 153.
15.56000, 187.
15.70000, 266.
15.84000, 220.
15.98000, 174.
16.12000, 141.
16.26000, 129.
16.40000, 136.
16.54000, 144.
16.68000, 163.
16.82000, 157.
16.96000, 163.
17.10000, 161.
17.24000, 169.
17.38000, 152.
17.52000, 177.
17.66000, 176.
17.80000, 199.
17.94000, 221.
18.08000, 237.
18.22000, 281.
18.36000, 386.
18.50000, 584.
18.64000, 762.
18.78000, 913.
18.92000, 861.
19.06000, 661.
19.20000, 431.
19.34000, 276.
19.48000, 219.
19.62000, 204.
19.76000, 192.
19.90000, 230.
20.04000, 481.
20.18000, 544.
20.32000, 304.
20.46000, 174.
20.60000, 179.
20.74000, 194.
20.88000, 225.
21.02000, 262.
21.16000, 203.
21.30000, 182.
21.44000, 161.
21.58000, 139.
21.72000, 118.
21.86000, 77.
22.00000, 95.
22.14000, 92.
22.28000, 91.
22.42000, 93.
22.56000, 112.
22.70000, 137.
22.84000, 93.
22.98000, 71.
23.12000, 97.
23.26000, 72.
23.40000, 67.
23.54000, 62.
23.68000, 65.
23.82000, 69.
23.96000, 66.
24.10000, 76.
24.24000, 70.
24.38000, 52.
24.52000, 65.
24.66000, 58.
24.80000, 53.
24.94000, 71.
25.08000, 68.
25.22000, 47.
25.36000, 61.
25.50000, 54.
25.64000, 62.
25.78000, 77.
25.92000, 57.
26.06000, 49.
26.20000, 49.
26.34000, 60.
26.48000, 54.
26.62000, 56.
26.76000, 58.
26.90000, 47.
27.04000, 46.
27.18000, 46.
27.32000, 41.
27.46000, 39.
27.60000, 42.
27.74000, 53.
27.88000, 52.
28.02000, 58.
28.16000, 58.
28.30000, 43.
28.44000, 36.
28.58000, 51.
28.72000, 42.
28.86000, 38.
29.00000, 37.
29.14000, 40.
29.28000, 42.
29.42000, 45.
29.56000, 42.
29.70000, 35.
29.84000, 41.
29.98000, 41.
30.12000, 35.
30.26000, 39.
30.40000, 27.
30.54000, 30.
30.68000, 28.
30.82000, 36.
30.96000, 29.
31.10000, 36.
31.24000, 25.
31.38000, 34.
31.52000, 27.
31.66000, 41.
31.80000, 32.
31.94000, 28.
32.08000, 37.
32.22000, 48.
32.36000, 19.
32.50000, 33.
32.64000, 27.
32.78000, 26.
32.92000, 21.
33.06000, 25.
33.20000, 22.
33.34000, 29.
33.48000, 24.
33.62000, 24.
33.76000, 24.
33.90000, 29.
34.04000, 15.
34.18000, 15.
34.32000, 23.
34.46000, 24.
34.60000, 19.
34.74000, 21.
34.88000, 16.
35.02000, 15.
35.16000, 24.
35.30000, 21.
35.44000, 16.
35.58000, 12.
35.72000, 15.
35.86000, 18.
36.00000, 21.
36.14000, 7.
36.28000, 20.
36.42000, 10.
36.56000, 10.
36.70000, 13.
36.84000, 15.
36.98000, 9.
37.12000, 11.
37.26000, 7.
37.40000, 10.
37.54000, 8.
37.68000, 15.
37.82000, 7.
37.96000, 12.
38.10000, 7.
38.24000, 8.
38.38000, 8.
38.52000, 5.
38.66000, 6.
38.80000, 11.
38.94000, 10.
39.08000, 9.
39.22000, 7.
39.36000, 7.
39.50000, 8.
39.64000, 1.
39.78000, 5.
39.92000, 6.
40.06000, 4.
40.20000, 5.
40.34000, 8.
40.48000, 1.
40.55000, 0.
#ENDOFDATA   :